## w(eV)         sigma(Sm^-1)
    0.01         2.92862e+06
    0.03         2.93063e+06
    0.05         2.93466e+06
    0.07         2.94071e+06
    0.09         2.94881e+06
    0.11         2.95897e+06
    0.13         2.97122e+06
    0.15         2.98558e+06
    0.17         3.00209e+06
    0.19         3.02079e+06
    0.21         3.04171e+06
    0.23          3.0649e+06
    0.25         3.09038e+06
    0.27         3.11821e+06
    0.29         3.14843e+06
    0.31         3.18107e+06
    0.33         3.21617e+06
    0.35         3.25377e+06
    0.37         3.29389e+06
    0.39         3.33656e+06
    0.41          3.3818e+06
    0.43          3.4296e+06
    0.45         3.47996e+06
    0.47         3.53287e+06
    0.49         3.58827e+06
    0.51         3.64611e+06
    0.53          3.7063e+06
    0.55         3.76872e+06
    0.57         3.83321e+06
    0.59         3.89959e+06
    0.61         3.96761e+06
    0.63         4.03697e+06
    0.65         4.10733e+06
    0.67         4.17825e+06
    0.69         4.24925e+06
    0.71         4.31975e+06
    0.73         4.38912e+06
    0.75          4.4566e+06
    0.77         4.52139e+06
    0.79         4.58259e+06
    0.81         4.63923e+06
    0.83         4.69028e+06
    0.85         4.73469e+06
    0.87         4.77135e+06
    0.89         4.79919e+06
    0.91         4.81718e+06
    0.93         4.82434e+06
    0.95         4.81984e+06
    0.97         4.80299e+06
    0.99         4.77329e+06
    1.01         4.73045e+06
    1.03         4.67445e+06
    1.05         4.60549e+06
    1.07         4.52407e+06
    1.09         4.43089e+06
    1.11          4.3269e+06
    1.13         4.21322e+06
    1.15         4.09113e+06
    1.17         3.96201e+06
    1.19         3.82727e+06
    1.21         3.68837e+06
    1.23         3.54669e+06
    1.25         3.40356e+06
    1.27         3.26023e+06
    1.29         3.11779e+06
    1.31         2.97723e+06
    1.33         2.83938e+06
    1.35         2.70496e+06
    1.37         2.57453e+06
    1.39         2.44852e+06
    1.41         2.32728e+06
    1.43         2.21101e+06
    1.45         2.09987e+06
    1.47          1.9939e+06
    1.49          1.8931e+06
    1.51         1.79741e+06
    1.53         1.70673e+06
    1.55         1.62092e+06
    1.57         1.53983e+06
    1.59         1.46327e+06
    1.61         1.39106e+06
    1.63         1.32299e+06
    1.65         1.25887e+06
    1.67         1.19849e+06
    1.69         1.14166e+06
    1.71         1.08817e+06
    1.73         1.03783e+06
    1.75              990473
    1.77              945908
    1.79              903973
    1.81              864507
    1.83              827359
    1.85              792385
    1.87              759452
    1.89              728431
    1.91              699205
    1.93              671660
    1.95              645691
    1.97              621202
    1.99              598100
    2.01              576298
    2.03              555718
    2.05              536283
    2.07              517925
    2.09              500577
    2.11              484179
    2.13              468673
    2.15              454007
    2.17              440131
    2.19              426998
    2.21              414566
    2.23              402794
    2.25              391644
    2.27              381081
    2.29              371071
    2.31              361585
    2.33              352593
    2.35              344068
    2.37              335985
    2.39              328320
    2.41              321052
    2.43              314159
    2.45              307622
    2.47              301423
    2.49              295545
    2.51              289971
    2.53              284688
    2.55              279679
    2.57              274934
    2.59              270438
    2.61              266180
    2.63              262149
    2.65              258336
    2.67              254730
    2.69              251322
    2.71              248103
    2.73              245066
    2.75              242203
    2.77              239507
    2.79              236971
    2.81              234588
    2.83              232354
    2.85              230262
    2.87              228307
    2.89              226484
    2.91              224788
    2.93              223216
    2.95              221763
    2.97              220424
    2.99              219198
    3.01              218080
    3.03              217067
    3.05              216156
    3.07              215344
    3.09              214629
    3.11              214009
    3.13              213481
    3.15              213043
    3.17              212693
    3.19              212430
    3.21              212251
    3.23              212156
    3.25              212143
    3.27              212211
    3.29              212358
    3.31              212584
    3.33              212888
    3.35              213268
    3.37              213726
    3.39              214259
    3.41              214867
    3.43              215551
    3.45              216310
    3.47              217143
    3.49              218051
    3.51              219034
    3.53              220092
    3.55              221226
    3.57              222434
    3.59              223720
    3.61              225081
    3.63              226521
    3.65              228038
    3.67              229634
    3.69              231311
    3.71              233068
    3.73              234908
    3.75              236831
    3.77              238839
    3.79              240933
    3.81              243116
    3.83              245389
    3.85              247753
    3.87              250211
    3.89              252766
    3.91              255418
    3.93              258171
    3.95              261027
    3.97              263990
    3.99              267061
    4.01              270244
    4.03              273542
    4.05              276959
    4.07              280498
    4.09              284163
    4.11              287959
    4.13              291888
    4.15              295957
    4.17              300169
    4.19              304529
    4.21              309044
    4.23              313718
    4.25              318557
    4.27              323568
    4.29              328756
    4.31              334130
    4.33              339695
    4.35              345460
    4.37              351433
    4.39              357622
    4.41              364036
    4.43              370684
    4.45              377578
    4.47              384726
    4.49              392140
    4.51              399832
    4.53              407815
    4.55              416101
    4.57              424704
    4.59              433638
    4.61              442920
    4.63              452565
    4.65              462590
    4.67              473014
    4.69              483855
    4.71              495135
    4.73              506873
    4.75              519093
    4.77              531818
    4.79              545074
    4.81              558886
    4.83              573283
    4.85              588293
    4.87              603948
    4.89              620279
    4.91              637320
    4.93              655107
    4.95              673676
    4.97              693066
    4.99              713318
    5.01              734472
    5.03              756571
    5.05              779660
    5.07              803784
    5.09              828988
    5.11              855318
    5.13              882820
    5.15              911541
    5.17              941523
    5.19              972809
    5.21         1.00544e+06
    5.23         1.03944e+06
    5.25         1.07485e+06
    5.27         1.11169e+06
    5.29         1.14997e+06
    5.31         1.18968e+06
    5.33         1.23082e+06
    5.35         1.27335e+06
    5.37         1.31722e+06
    5.39         1.36236e+06
    5.41         1.40865e+06
    5.43         1.45598e+06
    5.45         1.50417e+06
    5.47         1.55302e+06
    5.49         1.60227e+06
    5.51         1.65164e+06
    5.53         1.70079e+06
    5.55         1.74935e+06
    5.57         1.79689e+06
    5.59         1.84295e+06
    5.61         1.88705e+06
    5.63         1.92866e+06
    5.65         1.96728e+06
    5.67         2.00238e+06
    5.69         2.03347e+06
    5.71          2.0601e+06
    5.73         2.08188e+06
    5.75         2.09848e+06
    5.77         2.10967e+06
    5.79         2.11533e+06
    5.81         2.11545e+06
    5.83         2.11012e+06
    5.85         2.09954e+06
    5.87         2.08404e+06
    5.89         2.06399e+06
    5.91         2.03989e+06
    5.93         2.01225e+06
    5.95         1.98163e+06
    5.97         1.94863e+06
    5.99         1.91381e+06
    6.01         1.87776e+06
    6.03         1.84101e+06
    6.05         1.80407e+06
    6.07          1.7674e+06
    6.09         1.73142e+06
    6.11         1.69649e+06
    6.13         1.66293e+06
    6.15         1.63101e+06
    6.17         1.60096e+06
    6.19         1.57297e+06
    6.21         1.54718e+06
    6.23         1.52371e+06
    6.25         1.50265e+06
    6.27         1.48404e+06
    6.29         1.46794e+06
    6.31         1.45436e+06
    6.33         1.44328e+06
    6.35          1.4347e+06
    6.37         1.42856e+06
    6.39         1.42482e+06
    6.41          1.4234e+06
    6.43          1.4242e+06
    6.45         1.42713e+06
    6.47         1.43205e+06
    6.49         1.43882e+06
    6.51         1.44724e+06
    6.53         1.45713e+06
    6.55         1.46826e+06
    6.57         1.48035e+06
    6.59         1.49314e+06
    6.61         1.50629e+06
    6.63         1.51947e+06
    6.65         1.53231e+06
    6.67         1.54441e+06
    6.69         1.55538e+06
    6.71          1.5648e+06
    6.73         1.57229e+06
    6.75         1.57744e+06
    6.77         1.57992e+06
    6.79         1.57941e+06
    6.81         1.57564e+06
    6.83         1.56843e+06
    6.85         1.55766e+06
    6.87         1.54327e+06
    6.89         1.52532e+06
    6.91          1.5039e+06
    6.93         1.47919e+06
    6.95         1.45146e+06
    6.97         1.42097e+06
    6.99         1.38808e+06
    7.01         1.35314e+06
    7.03         1.31651e+06
    7.05         1.27857e+06
    7.07         1.23968e+06
    7.09         1.20019e+06
    7.11         1.16039e+06
    7.13         1.12059e+06
    7.15         1.08105e+06
    7.17         1.04197e+06
    7.19         1.00355e+06
    7.21              965941
    7.23              929277
    7.25              893654
    7.27              859145
    7.29              825802
    7.31              793660
    7.33              762736
    7.35              733032
    7.37              704543
    7.39              677251
    7.41              651131
    7.43              626155
    7.45              602288
    7.47              579494
    7.49              557732
    7.51              536963
    7.53              517145
    7.55              498236
    7.57              480197
    7.59              462985
    7.61              446563
    7.63              430892
    7.65              415934
    7.67              401655
    7.69              388020
    7.71              374996
    7.73              362553
    7.75              350661
    7.77              339291
    7.79              328416
    7.81              318012
    7.83              308054
    7.85              298519
    7.87              289386
    7.89              280634
    7.91              272244
    7.93              264199
    7.95              256480
    7.97              249071
    7.99              241958
    8.01              235125
    8.03              228559
    8.05              222247
    8.07              216177
    8.09              210337
    8.11              204716
    8.13              199304
    8.15              194092
    8.17              189070
    8.19              184229
    8.21              179562
    8.23              175059
    8.25              170715
    8.27              166521
    8.29              162472
    8.31              158561
    8.33              154782
    8.35              151129
    8.37              147598
    8.39              144182
    8.41              140878
    8.43              137680
    8.45              134585
    8.47              131587
    8.49              128684
    8.51              125871
    8.53              123145
    8.55              120502
    8.57              117940
    8.59              115454
    8.61              113043
    8.63              110703
    8.65              108432
    8.67              106227
    8.69              104086
    8.71              102006
    8.73             99985.9
    8.75             98022.5
    8.77             96114.1
    8.79             94258.8
    8.81             92454.8
    8.83             90700.1
    8.85             88993.1
    8.87             87332.2
    8.89             85715.7
    8.91             84142.1
    8.93             82609.8
    8.95             81117.5
    8.97             79663.7
    8.99             78247.1
    9.01             76866.3
    9.03             75520.1
    9.05             74207.1
    9.07             72926.3
    9.09             71676.4
    9.11             70456.2
    9.13             69264.8
    9.15               68101
    9.17             66963.8
    9.19             65852.2
    9.21             64765.4
    9.23             63702.5
    9.25             62662.6
    9.27             61645.1
    9.29             60649.2
    9.31             59674.3
    9.33             58719.7
    9.35             57785.1
    9.37             56869.7
    9.39             55973.2
    9.41             55095.2
    9.43             54235.2
    9.45             53392.9
    9.47             52567.8
    9.49             51759.6
    9.51             50968.1
    9.53             50192.7
    9.55             49433.3
    9.57             48689.5
    9.59               47961
    9.61             47247.4
    9.63             46548.3
    9.65             45863.6
    9.67             45192.9
    9.69             44535.8
    9.71               43892
    9.73             43261.3
    9.75             42643.3
    9.77             42037.6
    9.79             41444.1
    9.81             40862.4
    9.83             40292.2
    9.85             39733.3
    9.87             39185.3
    9.89               38648
    9.91             38121.1
    9.93             37604.4
    9.95             37097.7
    9.97             36600.6
    9.99             36112.9
   10.01             35634.5
   10.03             35165.1
   10.05             34704.4
   10.07             34252.3
   10.09             33808.6
   10.11               33373
   10.13             32945.4
   10.15             32525.6
   10.17             32113.3
   10.19             31708.5
   10.21               31311
   10.23             30920.5
   10.25               30537
   10.27             30160.2
   10.29               29790
   10.31             29426.3
   10.33             29068.9
   10.35             28717.7
   10.37             28372.6
   10.39             28033.3
   10.41             27699.9
   10.43             27372.1
   10.45             27049.8
   10.47               26733
   10.49             26421.5
   10.51             26115.1
   10.53             25813.9
   10.55             25517.6
   10.57             25226.2
   10.59             24939.6
   10.61             24657.7
   10.63             24380.3
   10.65             24107.4
   10.67             23838.9
   10.69             23574.8
   10.71             23314.8
   10.73               23059
   10.75             22807.3
   10.77             22559.5
   10.79             22315.7
   10.81             22075.6
   10.83             21839.3
   10.85             21606.7
   10.87             21377.7
   10.89             21152.3
   10.91             20930.3
   10.93             20711.7
   10.95             20496.5
   10.97             20284.6
   10.99             20075.9
   11.01             19870.3
   11.03             19667.9
   11.05             19468.4
   11.07               19272
   11.09             19078.6
   11.11               18888
   11.13             18700.2
   11.15             18515.3
   11.17             18333.1
   11.19             18153.5
   11.21             17976.6
   11.23             17802.3
   11.25             17630.6
   11.27             17461.3
   11.29             17294.5
   11.31             17130.2
   11.33             16968.2
   11.35             16808.6
   11.37             16651.2
   11.39             16496.2
   11.41             16343.3
   11.43             16192.7
   11.45             16044.2
   11.47             15897.8
   11.49             15753.5
   11.51             15611.2
   11.53               15471
   11.55             15332.8
   11.57             15196.5
   11.59             15062.1
   11.61             14929.6
   11.63               14799
   11.65             14670.2
   11.67             14543.3
   11.69             14418.1
   11.71             14294.6
   11.73             14172.9
   11.75             14052.9
   11.77             13934.6
   11.79             13817.9
   11.81             13702.9
   11.83             13589.4
   11.85             13477.5
   11.87             13367.2
   11.89             13258.4
   11.91             13151.1
   11.93             13045.4
   11.95               12941
   11.97             12838.2
   11.99             12736.7
   12.01             12636.7
   12.03             12538.1
   12.05             12440.8
   12.07             12344.9
   12.09             12250.3
   12.11             12157.1
   12.13             12065.1
   12.15             11974.5
   12.17             11885.1
   12.19             11796.9
   12.21               11710
   12.23             11624.3
   12.25             11539.8
   12.27             11456.5
   12.29             11374.4
   12.31             11293.5
   12.33             11213.7
   12.35               11135
   12.37             11057.4
   12.39               10981
   12.41             10905.7
   12.43             10831.4
   12.45             10758.2
   12.47             10686.1
   12.49               10615
   12.51               10545
   12.53               10476
   12.55               10408
   12.57               10341
   12.59               10275
   12.61               10210
   12.63               10146
   12.65             10082.9
   12.67             10020.8
   12.69             9959.69
   12.71             9899.49
   12.73             9840.23
   12.75             9781.89
   12.77             9724.46
   12.79             9667.95
   12.81             9612.35
   12.83             9557.64
   12.85             9503.82
   12.87             9450.88
   12.89             9398.82
   12.91             9347.63
   12.93             9297.31
   12.95             9247.85
   12.97             9199.24
   12.99             9151.48
   13.01             9104.56
   13.03             9058.48
   13.05             9013.24
   13.07             8968.83
   13.09             8925.25
   13.11             8882.49
   13.13             8840.54
   13.15             8799.42
   13.17             8759.11
   13.19              8719.6
   13.21             8680.91
   13.23             8643.02
   13.25             8605.94
   13.27             8569.65
   13.29             8534.17
   13.31             8499.49
   13.33              8465.6
   13.35             8432.51
   13.37             8400.21
   13.39             8368.72
   13.41             8338.01
   13.43              8308.1
   13.45             8278.99
   13.47             8250.68
   13.49             8223.16
   13.51             8196.44
   13.53             8170.53
   13.55             8145.41
   13.57             8121.11
   13.59              8097.6
   13.61             8074.91
   13.63             8053.03
   13.65             8031.97
   13.67             8011.73
   13.69             7992.31
   13.71             7973.73
   13.73             7955.97
   13.75             7939.06
