## w(eV)         sigma(Sm^-1)     kappa(W(mK)^-1)        L12/e(Am^-1)      L22/e^2(Wm^-1)
    0.01         2.73535e+06              1831.7        -4.12231e+07         7.94775e+08
    0.03         2.73423e+06             1830.87        -4.12053e+07         7.94412e+08
    0.05           2.732e+06             1829.22        -4.11695e+07         7.93684e+08
    0.07         2.72863e+06             1826.74        -4.11156e+07         7.92591e+08
    0.09         2.72412e+06             1823.43        -4.10436e+07         7.91132e+08
    0.11         2.71842e+06             1819.31        -4.09531e+07         7.89305e+08
    0.13         2.71153e+06             1814.36        -4.08438e+07          7.8711e+08
    0.15          2.7034e+06             1808.61        -4.07155e+07         7.84544e+08
    0.17         2.69399e+06             1802.04        -4.05678e+07         7.81606e+08
    0.19         2.68328e+06             1794.68        -4.04003e+07         7.78295e+08
    0.21          2.6712e+06             1786.52        -4.02127e+07         7.74609e+08
    0.23         2.65773e+06             1777.59        -4.00045e+07         7.70549e+08
    0.25         2.64282e+06             1767.89        -3.97754e+07         7.66113e+08
    0.27         2.62642e+06             1757.44        -3.95251e+07         7.61302e+08
    0.29         2.60849e+06             1746.26        -3.92532e+07         7.56119e+08
    0.31         2.58899e+06             1734.37        -3.89594e+07         7.50566e+08
    0.33         2.56789e+06              1721.8        -3.86436e+07         7.44646e+08
    0.35         2.54516e+06             1708.57        -3.83055e+07         7.38366e+08
    0.37         2.52077e+06             1694.71        -3.79451e+07         7.31731e+08
    0.39          2.4947e+06             1680.26        -3.75625e+07          7.2475e+08
    0.41         2.46694e+06             1665.25        -3.71577e+07         7.17433e+08
    0.43         2.43748e+06             1649.72         -3.6731e+07         7.09789e+08
    0.45         2.40633e+06             1633.71        -3.62826e+07         7.01834e+08
    0.47         2.37351e+06             1617.26        -3.58131e+07          6.9358e+08
    0.49         2.33902e+06             1600.42        -3.53229e+07         6.85044e+08
    0.51         2.30291e+06             1583.23        -3.48128e+07         6.76244e+08
    0.53         2.26522e+06             1565.73        -3.42836e+07           6.672e+08
    0.55           2.226e+06             1547.98        -3.37361e+07         6.57931e+08
    0.57         2.18531e+06             1530.02        -3.31714e+07          6.4846e+08
    0.59         2.14323e+06             1511.89        -3.25907e+07          6.3881e+08
    0.61         2.09983e+06             1493.63        -3.19952e+07         6.29006e+08
    0.63         2.05521e+06             1475.29        -3.13862e+07         6.19074e+08
    0.65         2.00947e+06              1456.9        -3.07653e+07         6.09038e+08
    0.67         1.96271e+06             1438.51        -3.01339e+07         5.98925e+08
    0.69         1.91506e+06             1420.13        -2.94937e+07         5.88764e+08
    0.71         1.86663e+06              1401.8        -2.88464e+07         5.78581e+08
    0.73         1.81755e+06             1383.54        -2.81937e+07         5.68403e+08
    0.75         1.76797e+06             1365.38        -2.75373e+07         5.58259e+08
    0.77         1.71801e+06             1347.31        -2.68792e+07         5.48174e+08
    0.79         1.66781e+06             1329.36         -2.6221e+07         5.38175e+08
    0.81         1.61753e+06             1311.53        -2.55647e+07         5.28289e+08
    0.83          1.5673e+06             1293.81         -2.4912e+07         5.18539e+08
    0.85         1.51728e+06              1276.2        -2.42648e+07          5.0895e+08
    0.87         1.46759e+06              1258.7        -2.36249e+07         4.99545e+08
    0.89          1.4184e+06             1241.27        -2.29939e+07         4.90346e+08
    0.91         1.36983e+06             1223.92        -2.23735e+07         4.81371e+08
    0.93         1.32202e+06             1206.61        -2.17653e+07         4.72641e+08
    0.95          1.2751e+06             1189.33        -2.11708e+07         4.64173e+08
    0.97          1.2292e+06             1172.06        -2.05916e+07         4.55981e+08
    0.99         1.18444e+06             1154.77        -2.00288e+07         4.48079e+08
    1.01         1.14092e+06             1137.45        -1.94837e+07          4.4048e+08
    1.03         1.09875e+06             1120.09        -1.89575e+07         4.33194e+08
    1.05         1.05803e+06             1102.67        -1.84511e+07          4.2623e+08
    1.07         1.01885e+06              1085.2        -1.79655e+07         4.19593e+08
    1.09              981272             1067.69        -1.75014e+07         4.13288e+08
    1.11              945376             1050.15        -1.70593e+07          4.0732e+08
    1.13              911219             1032.64        -1.66399e+07         4.01688e+08
    1.15              878849             1015.19        -1.62434e+07         3.96392e+08
    1.17              848305             997.887        -1.58701e+07         3.91431e+08
    1.19              819617             980.806        -1.55201e+07           3.868e+08
    1.21              792804             964.058        -1.51934e+07         3.82494e+08
    1.23              767876             947.767        -1.48897e+07         3.78507e+08
    1.25              744833             932.074        -1.46088e+07         3.74828e+08
    1.27              723666             917.137        -1.43503e+07          3.7145e+08
    1.29              704358             903.125        -1.41137e+07          3.6836e+08
    1.31              686883             890.215        -1.38983e+07         3.65547e+08
    1.33              671207             878.589        -1.37033e+07         3.62997e+08
    1.35              657289             868.428         -1.3528e+07         3.60695e+08
    1.37              645079             859.906        -1.33714e+07         3.58627e+08
    1.39              634524             853.184        -1.32325e+07         3.56776e+08
    1.41              625561             848.407        -1.31101e+07         3.55124e+08
    1.43              618124             845.699        -1.30031e+07         3.53654e+08
    1.45              612143             845.156        -1.29104e+07         3.52349e+08
    1.47              607539             846.849        -1.28305e+07         3.51188e+08
    1.49              604235              850.82        -1.27622e+07         3.50153e+08
    1.51              602148             857.079        -1.27041e+07         3.49224e+08
    1.53              601190             865.609        -1.26549e+07         3.48383e+08
    1.55              601276             876.368        -1.26131e+07         3.47608e+08
    1.57              602314             889.286        -1.25774e+07         3.46881e+08
    1.59              604215             904.275        -1.25463e+07         3.46183e+08
    1.61              606888             921.227        -1.25185e+07         3.45493e+08
    1.63              610240             940.017        -1.24926e+07         3.44794e+08
    1.65              614181             960.511        -1.24673e+07         3.44066e+08
    1.67              618620             982.562        -1.24413e+07         3.43294e+08
    1.69              623468             1006.02        -1.24134e+07         3.42458e+08
    1.71              628636             1030.72        -1.23825e+07         3.41544e+08
    1.73              634040              1056.5        -1.23473e+07         3.40535e+08
    1.75              639594              1083.2        -1.23068e+07         3.39418e+08
    1.77              645218             1110.65        -1.22602e+07          3.3818e+08
    1.79              650832             1138.68        -1.22066e+07         3.36808e+08
    1.81              656362             1167.12        -1.21451e+07         3.35292e+08
    1.83              661736              1195.8        -1.20751e+07         3.33622e+08
    1.85              666884             1224.55         -1.1996e+07          3.3179e+08
    1.87              671743             1253.21        -1.19074e+07         3.29791e+08
    1.89              676250             1281.62        -1.18088e+07         3.27618e+08
    1.91              680349              1309.6        -1.17001e+07          3.2527e+08
    1.93              683988                1337         -1.1581e+07         3.22743e+08
    1.95              687118             1363.67        -1.14516e+07         3.20037e+08
    1.97              689695             1389.46        -1.13119e+07         3.17155e+08
    1.99              691681             1414.23         -1.1162e+07         3.14099e+08
    2.01              693040             1437.85        -1.10022e+07         3.10873e+08
    2.03              693741             1460.19        -1.08329e+07         3.07485e+08
    2.05              693760             1481.15        -1.06545e+07          3.0394e+08
    2.07              693075             1500.62        -1.04676e+07          3.0025e+08
    2.09              691670             1518.51        -1.02727e+07         2.96423e+08
    2.11              689533             1534.74        -1.00706e+07         2.92471e+08
    2.13              686657             1549.27        -9.86205e+06         2.88409e+08
    2.15              683037             1562.03        -9.64776e+06         2.84248e+08
    2.17              678675             1573.02        -9.42861e+06         2.80004e+08
    2.19              673576              1582.2        -9.20549e+06         2.75693e+08
    2.21              667750             1589.59        -8.97931e+06         2.71331e+08
    2.23              661209             1595.19        -8.75098e+06         2.66934e+08
    2.25              653971             1599.06        -8.52144e+06         2.62519e+08
    2.27              646054             1601.22        -8.29162e+06         2.58104e+08
    2.29              637483             1601.75        -8.06244e+06         2.53705e+08
    2.31              628283             1600.71         -7.8348e+06          2.4934e+08
    2.33              618485             1598.19        -7.60958e+06         2.45026e+08
    2.35              608120             1594.29        -7.38762e+06         2.40778e+08
    2.37              597222             1589.09        -7.16972e+06         2.36612e+08
    2.39              585828             1582.72        -6.95662e+06         2.32543e+08
    2.41              573976             1575.26        -6.74902e+06         2.28586e+08
    2.43              561706             1566.85        -6.54756e+06         2.24753e+08
    2.45              549059             1557.57        -6.35281e+06         2.21057e+08
    2.47              536078             1547.54        -6.16529e+06         2.17507e+08
    2.49              522805             1536.86        -5.98542e+06         2.14115e+08
    2.51              509285             1525.62        -5.81359e+06         2.10889e+08
    2.53              495561             1513.91         -5.6501e+06         2.07835e+08
    2.55              481677             1501.79        -5.49518e+06          2.0496e+08
    2.57              467679             1489.35        -5.34899e+06         2.02268e+08
    2.59              453608             1476.62        -5.21166e+06         1.99762e+08
    2.61              439509             1463.64         -5.0832e+06         1.97444e+08
    2.63              425422             1450.44        -4.96362e+06         1.95316e+08
    2.65              411391             1437.02        -4.85283e+06         1.93377e+08
    2.67              397454             1423.39        -4.75071e+06         1.91626e+08
    2.69              383650             1409.52        -4.65711e+06         1.90059e+08
    2.71              370016             1395.38        -4.57182e+06         1.88676e+08
    2.73              356589             1380.92        -4.49462e+06          1.8747e+08
    2.75              343402              1366.1        -4.42523e+06         1.86439e+08
    2.77              330487             1350.83        -4.36339e+06         1.85577e+08
    2.79              317876             1335.06        -4.30881e+06         1.84879e+08
    2.81              305597             1318.68        -4.26119e+06         1.84339e+08
    2.83              293676             1301.63        -4.22023e+06         1.83953e+08
    2.85              282139             1283.81        -4.18565e+06         1.83714e+08
    2.87              271010             1265.14        -4.15717e+06         1.83618e+08
    2.89              260310             1245.52        -4.13453e+06          1.8366e+08
    2.91              250060             1224.89         -4.1175e+06         1.83835e+08
    2.93              240278             1203.16        -4.10586e+06         1.84139e+08
    2.95              230981              1180.3        -4.09945e+06          1.8457e+08
    2.97              222186             1156.27        -4.09813e+06         1.85124e+08
    2.99              213908             1131.04        -4.10179e+06           1.858e+08
    3.01              206161             1104.64        -4.11038e+06         1.86597e+08
    3.03              198957              1077.1        -4.12389e+06         1.87515e+08
    3.05              192309             1048.51        -4.14235e+06         1.88555e+08
    3.07              186230             1018.99        -4.16585e+06         1.89719e+08
    3.09              180730             988.689         -4.1945e+06          1.9101e+08
    3.11              175821             957.815         -4.2285e+06         1.92431e+08
    3.13              171515             926.612        -4.26805e+06         1.93988e+08
    3.15              167823             895.368        -4.31344e+06         1.95686e+08
    3.17              164755             864.405        -4.36497e+06         1.97531e+08
    3.19              162323             834.072        -4.42299e+06         1.99531e+08
    3.21              160540             804.736         -4.4879e+06         2.01694e+08
    3.23              159416             776.769        -4.56012e+06         2.04028e+08
    3.25              158965              750.53         -4.6401e+06         2.06542e+08
    3.27              159198             726.354        -4.72832e+06         2.09245e+08
    3.29              160127             704.533        -4.82527e+06         2.12147e+08
    3.31              161766             685.307        -4.93146e+06         2.15257e+08
    3.33              164127              668.85        -5.04742e+06         2.18586e+08
    3.35              167221             655.269        -5.17364e+06         2.22142e+08
    3.37              171061             644.597        -5.31065e+06         2.25935e+08
    3.39              175657             636.801        -5.45892e+06         2.29974e+08
    3.41              181019             631.784        -5.61894e+06         2.34265e+08
    3.43              187156             629.397        -5.79113e+06         2.38818e+08
    3.45              194075              629.45        -5.97589e+06         2.43636e+08
    3.47              201782             631.723        -6.17357e+06         2.48727e+08
    3.49              210279             635.974        -6.38446e+06         2.54092e+08
    3.51              219566             641.957         -6.6088e+06         2.59735e+08
    3.53              229642             649.423        -6.84672e+06         2.65655e+08
    3.55              240499              658.13        -7.09831e+06         2.71852e+08
    3.57              252130             667.851        -7.36354e+06         2.78322e+08
    3.59              264520             678.373        -7.64231e+06         2.85059e+08
    3.61              277651             689.499        -7.93439e+06         2.92057e+08
    3.63              291502             701.054        -8.23947e+06         2.99306e+08
    3.65              306044              712.88         -8.5571e+06         3.06793e+08
    3.67              321245             724.837        -8.88673e+06         3.14503e+08
    3.69              337067             736.801        -9.22769e+06          3.2242e+08
    3.71              353468             748.664        -9.57918e+06         3.30524e+08
    3.73              370398             760.334        -9.94027e+06         3.38793e+08
    3.75              387804             771.728        -1.03099e+07         3.47201e+08
    3.77              405625             782.777         -1.0687e+07         3.55723e+08
    3.79              423798             793.418        -1.10701e+07         3.64329e+08
    3.81              442251             803.599         -1.1458e+07         3.72986e+08
    3.83              460911             813.274        -1.18491e+07         3.81662e+08
    3.85              479698             822.404        -1.22419e+07          3.9032e+08
    3.87              498528             830.954        -1.26345e+07         3.98923e+08
    3.89              517314             838.895        -1.30253e+07         4.07433e+08
    3.91              535967               846.2        -1.34125e+07         4.15808e+08
    3.93              554394             852.847        -1.37941e+07         4.24008e+08
    3.95              572499             858.815        -1.41682e+07         4.31991e+08
    3.97              590188             864.088        -1.45328e+07         4.39714e+08
    3.99              607365             868.651        -1.48861e+07         4.47135e+08
    4.01              623935             872.491        -1.52259e+07         4.54212e+08
    4.03              639803             875.596        -1.55505e+07         4.60904e+08
    4.05              654877             877.956        -1.58578e+07         4.67169e+08
    4.07              669068             879.565        -1.61462e+07         4.72969e+08
    4.09              682291             880.415        -1.64137e+07         4.78266e+08
    4.11              694464             880.502        -1.66588e+07         4.83024e+08
    4.13              705513             879.823        -1.68799e+07         4.87212e+08
    4.15              715367             878.375        -1.70755e+07         4.90798e+08
    4.17              723964             876.158        -1.72445e+07         4.93755e+08
    4.19              731248             873.175        -1.73855e+07         4.96059e+08
    4.21              737171             869.427        -1.74976e+07          4.9769e+08
    4.23              741695             864.921        -1.75801e+07         4.98631e+08
    4.25              744790             859.662        -1.76323e+07         4.98869e+08
    4.27              746433              853.66        -1.76538e+07         4.98396e+08
    4.29              746613             846.925        -1.76442e+07         4.97207e+08
    4.31              745327              839.47        -1.76037e+07         4.95302e+08
    4.33              742583             831.309        -1.75322e+07         4.92684e+08
    4.35              738397             822.459        -1.74302e+07         4.89363e+08
    4.37              732794              812.94        -1.72982e+07         4.85351e+08
    4.39              725808             802.773        -1.71369e+07         4.80665e+08
    4.41              717484             791.981        -1.69472e+07         4.75324e+08
    4.43              707871              780.59        -1.67301e+07         4.69354e+08
    4.45              697029             768.627        -1.64869e+07         4.62781e+08
