## w(eV)      kappa(W(mK)^-1)
    0.01             1227.55
    0.03             1229.16
    0.05              1232.4
    0.07             1237.23
    0.09             1243.64
    0.11             1251.61
    0.13             1261.11
    0.15             1272.08
    0.17             1284.49
    0.19             1298.28
    0.21             1313.36
    0.23             1329.68
    0.25             1347.13
    0.27              1365.6
    0.29                1385
    0.31             1405.19
    0.33             1426.03
    0.35             1447.38
    0.37             1469.08
    0.39             1490.96
    0.41             1512.85
    0.43             1534.58
    0.45             1555.95
    0.47             1576.78
    0.49             1596.87
    0.51             1616.05
    0.53             1634.12
    0.55             1650.91
    0.57             1666.25
    0.59             1679.99
    0.61             1691.98
    0.63             1702.12
    0.65              1710.3
    0.67             1716.48
    0.69              1720.6
    0.71             1722.67
    0.73             1722.69
    0.75             1720.72
    0.77             1716.83
    0.79              1711.1
    0.81             1703.65
    0.83             1694.59
    0.85             1684.05
    0.87             1672.16
    0.89             1659.06
    0.91             1644.88
    0.93             1629.76
    0.95             1613.82
    0.97             1597.19
    0.99             1579.96
    1.01             1562.25
    1.03             1544.15
    1.05             1525.74
    1.07             1507.11
    1.09             1488.31
    1.11             1469.43
    1.13             1450.52
    1.15             1431.65
    1.17             1412.87
    1.19             1394.24
    1.21             1375.83
    1.23             1357.69
    1.25              1339.9
    1.27             1322.52
    1.29             1305.61
    1.31             1289.24
    1.33             1273.48
    1.35             1258.38
    1.37             1244.01
    1.39             1230.42
    1.41             1217.65
    1.43             1205.74
    1.45              1194.7
    1.47             1184.56
    1.49             1175.32
    1.51             1166.96
    1.53             1159.48
    1.55             1152.84
    1.57             1147.01
    1.59             1141.95
    1.61             1137.61
    1.63             1133.94
    1.65              1130.9
    1.67             1128.43
    1.69             1126.51
    1.71             1125.08
    1.73             1124.13
    1.75             1123.64
    1.77              1123.6
    1.79             1124.01
    1.81             1124.89
    1.83             1126.24
    1.85              1128.1
    1.87             1130.49
    1.89             1133.44
    1.91             1136.98
    1.93             1141.11
    1.95             1145.86
    1.97             1151.22
    1.99             1157.19
    2.01             1163.75
    2.03             1170.84
    2.05             1178.42
    2.07             1186.41
    2.09             1194.72
    2.11             1203.25
    2.13             1211.89
    2.15              1220.5
    2.17             1228.95
    2.19             1237.08
    2.21             1244.75
    2.23             1251.82
    2.25             1258.13
    2.27             1263.54
    2.29             1267.94
    2.31              1271.2
    2.33             1273.22
    2.35             1273.94
    2.37             1273.28
    2.39             1271.23
    2.41             1267.77
    2.43              1262.9
    2.45             1256.67
    2.47             1249.14
    2.49             1240.38
    2.51             1230.49
    2.53             1219.59
    2.55             1207.78
    2.57             1195.21
    2.59             1182.01
    2.61             1168.33
    2.63              1154.3
    2.65             1140.04
    2.67              1125.7
    2.69             1111.39
    2.71              1097.2
    2.73             1083.25
    2.75              1069.6
    2.77             1056.33
    2.79             1043.48
    2.81              1031.1
    2.83             1019.22
    2.85             1007.84
    2.87             996.971
    2.89             986.602
    2.91             976.715
    2.93             967.282
    2.95             958.268
    2.97             949.633
    2.99             941.333
    3.01             933.321
    3.03              925.55
    3.05             917.974
    3.07              910.55
    3.09              903.24
    3.11             896.013
    3.13             888.844
    3.15             881.718
    3.17             874.629
    3.19             867.583
    3.21             860.592
    3.23              853.68
    3.25             846.877
    3.27             840.221
    3.29             833.753
    3.31             827.519
    3.33             821.566
    3.35             815.938
    3.37             810.679
    3.39             805.827
    3.41             801.418
    3.43             797.476
    3.45             794.023
    3.47             791.069
    3.49             788.618
    3.51             786.665
    3.53             785.197
    3.55             784.194
    3.57             783.626
    3.59             783.458
    3.61             783.649
    3.63              784.15
    3.65             784.908
    3.67             785.867
    3.69             786.963
    3.71             788.131
    3.73             789.303
    3.75             790.409
    3.77             791.379
    3.79             792.143
    3.81             792.633
    3.83             792.784
    3.85             792.539
    3.87             791.846
    3.89             790.664
    3.91             788.961
    3.93             786.716
    3.95             783.921
    3.97             780.578
    3.99             776.702
    4.01             772.315
    4.03             767.446
    4.05              762.13
    4.07             756.403
    4.09             750.303
    4.11             743.863
    4.13             737.114
    4.15             730.078
    4.17             722.775
    4.19             715.215
    4.21             707.404
    4.23             699.341
    4.25             691.025
    4.27             682.452
    4.29             673.616
    4.31             664.517
    4.33             655.159
    4.35             645.549
    4.37             635.704
    4.39             625.644
    4.41             615.398
    4.43             605.001
    4.45             594.492
    4.47             583.915
    4.49             573.316
    4.51              562.74
    4.53             552.234
    4.55             541.842
    4.57             531.604
    4.59             521.558
    4.61             511.737
    4.63             502.171
    4.65             492.885
    4.67             483.898
    4.69             475.228
    4.71             466.886
    4.73             458.883
    4.75             451.224
    4.77             443.913
    4.79              436.95
    4.81             430.334
    4.83             424.062
    4.85             418.129
    4.87             412.527
    4.89             407.247
    4.91             402.281
    4.93             397.616
    4.95             393.241
    4.97             389.143
    4.99             385.308
    5.01             381.723
    5.03             378.372
    5.05             375.243
    5.07              372.32
    5.09             369.592
    5.11             367.046
    5.13             364.671
    5.15             362.455
    5.17             360.388
    5.19             358.463
    5.21             356.671
    5.23             355.005
    5.25             353.458
    5.27             352.023
    5.29             350.696
    5.31              349.47
    5.33             348.343
    5.35             347.308
    5.37             346.364
    5.39             345.508
    5.41             344.738
    5.43             344.056
    5.45             343.464
    5.47             342.964
    5.49             342.564
    5.51             342.269
    5.53              342.09
    5.55             342.037
    5.57             342.122
    5.59             342.359
    5.61             342.762
    5.63             343.345
    5.65             344.123
    5.67             345.111
    5.69             346.323
    5.71             347.772
    5.73             349.471
    5.75             351.432
    5.77             353.666
    5.79             356.181
    5.81             358.987
    5.83              362.09
    5.85             365.498
    5.87             369.214
    5.89             373.244
    5.91              377.59
    5.93             382.254
    5.95             387.238
    5.97              392.54
    5.99              398.16
    6.01             404.094
    6.03             410.338
    6.05             416.885
    6.07             423.727
    6.09             430.853
    6.11             438.251
    6.13             445.905
    6.15             453.798
    6.17             461.909
    6.19             470.218
    6.21             478.701
    6.23             487.331
    6.25             496.083
    6.27             504.931
    6.29             513.847
    6.31             522.807
    6.33             531.786
    6.35             540.765
    6.37             549.724
    6.39             558.648
    6.41             567.526
    6.43             576.351
    6.45             585.116
    6.47             593.821
    6.49             602.464
    6.51             611.044
    6.53              619.56
    6.55             628.006
    6.57             636.373
    6.59             644.644
    6.61             652.794
    6.63              660.79
    6.65             668.588
    6.67             676.134
    6.69             683.366
    6.71             690.213
    6.73             696.596
    6.75             702.437
    6.77             707.653
    6.79             712.168
    6.81             715.914
    6.83              718.83
    6.85             720.875
    6.87             722.021
    6.89             722.263
    6.91             721.613
    6.93             720.104
    6.95             717.787
    6.97             714.729
    6.99             711.009
    7.01             706.716
    7.03             701.943
    7.05             696.782
    7.07             691.325
    7.09             685.656
    7.11             679.849
    7.13             673.968
    7.15             668.064
    7.17             662.174
    7.19             656.322
    7.21              650.52
    7.23             644.766
    7.25             639.049
    7.27              633.35
    7.29             627.641
    7.31             621.894
    7.33             616.074
    7.35             610.149
    7.37             604.086
    7.39             597.858
    7.41             591.441
    7.43             584.816
    7.45             577.971
    7.47             570.901
    7.49             563.607
    7.51             556.095
    7.53             548.381
    7.55             540.482
    7.57             532.423
    7.59             524.233
    7.61             515.943
    7.63              507.59
    7.65              499.21
    7.67             490.842
    7.69             482.525
    7.71             474.298
    7.73             466.198
    7.75             458.263
    7.77             450.526
    7.79             443.019
    7.81              435.77
    7.83             428.804
    7.85             422.143
    7.87             415.805
    7.89             409.803
    7.91             404.148
    7.93             398.847
    7.95             393.904
    7.97             389.318
    7.99             385.087
    8.01             381.205
    8.03             377.664
    8.05             374.453
    8.07             371.558
    8.09             368.962
    8.11             366.648
    8.13             364.593
    8.15             362.776
    8.17             361.169
    8.19             359.746
    8.21             358.475
    8.23             357.324
    8.25             356.259
    8.27             355.244
    8.29             354.244
    8.31             353.219
    8.33             352.135
    8.35             350.955
    8.37             349.643
    8.39              348.17
    8.41             346.506
    8.43             344.627
    8.45             342.515
    8.47             340.155
    8.49              337.54
    8.51             334.668
    8.53             331.544
    8.55             328.178
    8.57             324.587
    8.59              320.79
    8.61             316.812
    8.63             312.682
    8.65             308.428
    8.67             304.082
    8.69             299.675
    8.71              295.24
    8.73             290.807
    8.75             286.404
    8.77             282.059
    8.79             277.797
    8.81              273.64
    8.83             269.608
    8.85             265.719
    8.87             261.987
    8.89             258.425
    8.91             255.044
    8.93             251.852
    8.95             248.856
    8.97             246.059
    8.99             243.465
    9.01             241.076
    9.03             238.891
    9.05             236.911
    9.07             235.133
    9.09             233.554
    9.11             232.171
    9.13             230.979
    9.15             229.972
    9.17             229.147
    9.19             228.495
    9.21              228.01
    9.23             227.686
    9.25             227.515
    9.27             227.489
    9.29             227.599
    9.31             227.839
    9.33               228.2
    9.35             228.674
    9.37             229.252
    9.39             229.926
    9.41             230.689
    9.43             231.532
    9.45             232.447
    9.47             233.426
    9.49             234.462
    9.51             235.547
    9.53             236.671
    9.55             237.828
    9.57             239.008
    9.59             240.203
    9.61             241.404
    9.63             242.601
    9.65             243.785
    9.67             244.946
    9.69             246.073
    9.71             247.156
    9.73             248.183
    9.75             249.144
    9.77             250.026
    9.79             250.816
    9.81             251.501
    9.83             252.066
    9.85             252.496
    9.87             252.775
    9.89             252.885
    9.91             252.809
    9.93              252.53
    9.95             252.029
    9.97             251.292
    9.99             250.303
   10.01             249.051
   10.03             247.528
   10.05             245.729
   10.07             243.655
   10.09             241.311
   10.11             238.706
   10.13             235.854
   10.15             232.775
   10.17             229.489
   10.19             226.021
   10.21             222.398
   10.23             218.648
   10.25             214.799
   10.27             210.877
   10.29             206.911
   10.31             202.924
   10.33             198.939
   10.35             194.979
   10.37              191.06
   10.39             187.199
   10.41             183.409
   10.43             179.703
   10.45             176.087
   10.47             172.571
   10.49             169.158
   10.51             165.853
   10.53             162.656
   10.55             159.569
   10.57             156.591
   10.59             153.721
   10.61             150.955
   10.63             148.292
   10.65             145.728
   10.67             143.257
   10.69             140.877
   10.71             138.583
   10.73              136.37
   10.75             134.233
   10.77             132.168
   10.79             130.171
   10.81             128.239
   10.83             126.366
   10.85             124.552
   10.87             122.792
   10.89             121.086
   10.91             119.431
   10.93             117.826
   10.95             116.271
   10.97             114.766
   10.99             113.309
   11.01             111.902
   11.03             110.545
   11.05             109.237
   11.07              107.98
   11.09             106.772
   11.11             105.616
   11.13              104.51
   11.15             103.456
   11.17             102.452
   11.19               101.5
   11.21               100.6
   11.23             99.7507
   11.25             98.9532
   11.27             98.2075
   11.29             97.5137
   11.31              96.872
   11.33             96.2826
   11.35             95.7458
   11.37              95.262
   11.39             94.8316
   11.41             94.4552
   11.43             94.1331
   11.45             93.8661
   11.47             93.6547
   11.49             93.4995
   11.51             93.4012
   11.53             93.3604
   11.55             93.3777
   11.57             93.4536
   11.59             93.5886
   11.61             93.7829
   11.63             94.0367
   11.65               94.35
   11.67             94.7226
   11.69             95.1537
   11.71             95.6425
   11.73             96.1876
   11.75              96.787
   11.77             97.4384
   11.79             98.1387
   11.81              98.884
   11.83             99.6699
   11.85             100.491
   11.87              101.34
   11.89             102.211
   11.91             103.096
   11.93             103.985
   11.95             104.869
   11.97             105.737
   11.99             106.578
   12.01             107.381
   12.03             108.134
   12.05             108.827
   12.07             109.448
   12.09             109.988
   12.11             110.437
   12.13             110.788
   12.15             111.035
   12.17             111.172
   12.19             111.197
   12.21             111.109
   12.23             110.907
   12.25             110.593
   12.27             110.172
   12.29             109.647
   12.31             109.024
   12.33             108.309
   12.35             107.511
   12.37             106.638
   12.39             105.698
   12.41             104.699
   12.43             103.652
   12.45             102.566
   12.47              101.45
   12.49             100.312
   12.51             99.1622
   12.53             98.0085
   12.55             96.8588
   12.57             95.7206
   12.59             94.6006
   12.61             93.5051
   12.63             92.4394
   12.65             91.4084
   12.67              90.416
   12.69             89.4655
   12.71             88.5593
   12.73             87.6993
   12.75             86.8865
   12.77             86.1212
   12.79             85.4033
   12.81             84.7316
   12.83             84.1049
   12.85             83.5209
   12.87             82.9774
   12.89             82.4713
   12.91             81.9995
   12.93             81.5585
   12.95             81.1448
   12.97             80.7545
   12.99             80.3841
   13.01             80.0297
   13.03             79.6877
   13.05             79.3545
   13.07             79.0269
   13.09             78.7014
   13.11             78.3752
   13.13             78.0452
   13.15             77.7091
   13.17             77.3644
   13.19             77.0091
   13.21             76.6416
   13.23             76.2606
   13.25             75.8656
   13.27             75.4562
   13.29             75.0327
   13.31             74.5962
   13.33             74.1481
   13.35             73.6903
   13.37             73.2254
   13.39             72.7561
   13.41             72.2855
   13.43             71.8168
   13.45             71.3534
   13.47             70.8984
   13.49             70.4549
   13.51             70.0255
   13.53             69.6127
   13.55             69.2182
   13.57             68.8435
   13.59             68.4893
   13.61             68.1558
   13.63             67.8426
   13.65             67.5489
   13.67              67.273
   13.69             67.0128
   13.71             66.7659
   13.73             66.5291
   13.75             66.2993
