## w(eV)         sigma(Sm^-1)     kappa(W(mK)^-1)        L12/e(Am^-1)      L22/e^2(Wm^-1)
    0.01         1.76974e+06             1227.55        -2.80347e+07         5.60389e+08
    0.03         1.77028e+06             1229.16         -2.8045e+07         5.60736e+08
    0.05         1.77133e+06              1232.4        -2.80656e+07         5.61428e+08
    0.07          1.7729e+06             1237.23        -2.80961e+07         5.62461e+08
    0.09         1.77497e+06             1243.64        -2.81365e+07         5.63829e+08
    0.11         1.77752e+06             1251.61        -2.81865e+07         5.65526e+08
    0.13         1.78053e+06             1261.11        -2.82457e+07         5.67546e+08
    0.15           1.784e+06             1272.08        -2.83139e+07         5.69879e+08
    0.17          1.7879e+06             1284.49         -2.8391e+07          5.7252e+08
    0.19         1.79224e+06             1298.28        -2.84769e+07         5.75459e+08
    0.21         1.79701e+06             1313.36        -2.85715e+07         5.78689e+08
    0.23         1.80222e+06             1329.68        -2.86747e+07         5.82202e+08
    0.25         1.80785e+06             1347.13        -2.87866e+07         5.85989e+08
    0.27         1.81391e+06              1365.6         -2.8907e+07         5.90037e+08
    0.29         1.82038e+06                1385        -2.90357e+07         5.94333e+08
    0.31         1.82724e+06             1405.19        -2.91723e+07         5.98859e+08
    0.33         1.83442e+06             1426.03         -2.9316e+07         6.03592e+08
    0.35         1.84185e+06             1447.38        -2.94657e+07         6.08503e+08
    0.37         1.84944e+06             1469.08        -2.96201e+07         6.13557e+08
    0.39         1.85703e+06             1490.96        -2.97772e+07         6.18713e+08
    0.41         1.86447e+06             1512.85        -2.99345e+07         6.23921e+08
    0.43         1.87154e+06             1534.58        -3.00892e+07         6.29126e+08
    0.45         1.87801e+06             1555.95         -3.0238e+07         6.34263e+08
    0.47         1.88363e+06             1576.78        -3.03772e+07         6.39266e+08
    0.49          1.8881e+06             1596.87        -3.05029e+07          6.4406e+08
    0.51         1.89116e+06             1616.05        -3.06109e+07          6.4857e+08
    0.53          1.8925e+06             1634.12         -3.0697e+07          6.5272e+08
    0.55         1.89185e+06             1650.91        -3.07571e+07         6.56434e+08
    0.57         1.88896e+06             1666.25        -3.07875e+07         6.59642e+08
    0.59         1.88363e+06             1679.99        -3.07848e+07         6.62278e+08
    0.61         1.87566e+06             1691.98        -3.07463e+07         6.64286e+08
    0.63         1.86495e+06             1702.12        -3.06698e+07          6.6562e+08
    0.65         1.85145e+06              1710.3         -3.0554e+07         6.66247e+08
    0.67         1.83515e+06             1716.48        -3.03985e+07         6.66146e+08
    0.69         1.81611e+06              1720.6        -3.02036e+07          6.6531e+08
    0.71         1.79447e+06             1722.67        -2.99704e+07         6.63745e+08
    0.73         1.77038e+06             1722.69        -2.97008e+07          6.6147e+08
    0.75         1.74408e+06             1720.72        -2.93972e+07         6.58513e+08
    0.77         1.71579e+06             1716.83        -2.90627e+07         6.54912e+08
    0.79         1.68581e+06              1711.1        -2.87003e+07         6.50712e+08
    0.81         1.65439e+06             1703.65        -2.83138e+07         6.45962e+08
    0.83         1.62184e+06             1694.59        -2.79066e+07         6.40714e+08
    0.85         1.58842e+06             1684.05        -2.74822e+07          6.3502e+08
    0.87          1.5544e+06             1672.16        -2.70442e+07         6.28933e+08
    0.89         1.52003e+06             1659.06        -2.65956e+07         6.22503e+08
    0.91         1.48553e+06             1644.88        -2.61395e+07         6.15774e+08
    0.93          1.4511e+06             1629.76        -2.56784e+07          6.0879e+08
    0.95         1.41691e+06             1613.82        -2.52146e+07         6.01588e+08
    0.97         1.38311e+06             1597.19        -2.47502e+07         5.94203e+08
    0.99         1.34982e+06             1579.96        -2.42869e+07         5.86661e+08
    1.01         1.31714e+06             1562.25         -2.3826e+07         5.78988e+08
    1.03         1.28516e+06             1544.15        -2.33687e+07         5.71204e+08
    1.05         1.25393e+06             1525.74        -2.29158e+07         5.63327e+08
    1.07         1.22351e+06             1507.11        -2.24682e+07         5.55373e+08
    1.09         1.19392e+06             1488.31        -2.20265e+07         5.47354e+08
    1.11          1.1652e+06             1469.43        -2.15911e+07         5.39283e+08
    1.13         1.13736e+06             1450.52        -2.11624e+07         5.31174e+08
    1.15         1.11041e+06             1431.65        -2.07411e+07         5.23041e+08
    1.17         1.08436e+06             1412.87        -2.03273e+07         5.14899e+08
    1.19         1.05922e+06             1394.24        -1.99217e+07         5.06765e+08
    1.21           1.035e+06             1375.83        -1.95248e+07          4.9866e+08
    1.23          1.0117e+06             1357.69        -1.91369e+07         4.90605e+08
    1.25              989322              1339.9        -1.87589e+07         4.82625e+08
    1.27              967878             1322.52        -1.83912e+07         4.74746e+08
    1.29              947373             1305.61        -1.80346e+07         4.66996e+08
    1.31              927813             1289.24        -1.76896e+07         4.59402e+08
    1.33              909205             1273.48        -1.73571e+07         4.51992e+08
    1.35              891554             1258.38        -1.70375e+07         4.44794e+08
    1.37              874864             1244.01        -1.67315e+07         4.37834e+08
    1.39              859139             1230.42        -1.64397e+07         4.31135e+08
    1.41              844377             1217.65        -1.61623e+07         4.24717e+08
    1.43              830579             1205.74        -1.58999e+07         4.18597e+08
    1.45              817739              1194.7        -1.56526e+07         4.12787e+08
    1.47              805851             1184.56        -1.54204e+07         4.07295e+08
    1.49              794904             1175.32        -1.52035e+07         4.02125e+08
    1.51              784884             1166.96        -1.50016e+07         3.97275e+08
    1.53              775776             1159.48        -1.48144e+07         3.92739e+08
    1.55              767560             1152.84        -1.46416e+07         3.88507e+08
    1.57              760212             1147.01        -1.44826e+07         3.84564e+08
    1.59              753707             1141.95        -1.43369e+07         3.80893e+08
    1.61              748016             1137.61        -1.42036e+07         3.77473e+08
    1.63              743106             1133.94        -1.40821e+07          3.7428e+08
    1.65              738942              1130.9        -1.39713e+07         3.71291e+08
    1.67              735486             1128.43        -1.38704e+07         3.68479e+08
    1.69              732696             1126.51        -1.37784e+07         3.65819e+08
    1.71              730528             1125.08        -1.36941e+07         3.63284e+08
    1.73              728934             1124.13        -1.36165e+07         3.60849e+08
    1.75              727861             1123.64        -1.35445e+07         3.58491e+08
    1.77              727254              1123.6        -1.34769e+07         3.56185e+08
    1.79              727054             1124.01        -1.34125e+07         3.53909e+08
    1.81              727197             1124.89        -1.33499e+07         3.51642e+08
    1.83              727615             1126.24         -1.3288e+07         3.49363e+08
    1.85              728237              1128.1        -1.32254e+07         3.47052e+08
    1.87              728990             1130.49        -1.31607e+07         3.44689e+08
    1.89              729796             1133.44        -1.30925e+07         3.42254e+08
    1.91              730579             1136.98        -1.30196e+07          3.3973e+08
    1.93              731263             1141.11        -1.29405e+07         3.37098e+08
    1.95              731774             1145.86        -1.28541e+07         3.34341e+08
    1.97              732045             1151.22        -1.27592e+07         3.31444e+08
    1.99              732012             1157.19        -1.26548e+07         3.28396e+08
    2.01              731622             1163.75        -1.25402e+07         3.25187e+08
    2.03              730831             1170.84        -1.24149e+07         3.21812e+08
    2.05              729608             1178.42        -1.22785e+07         3.18268e+08
    2.07              727929             1186.41        -1.21312e+07         3.14561e+08
    2.09              725786             1194.72        -1.19732e+07         3.10698e+08
    2.11              723176             1203.25         -1.1805e+07         3.06691e+08
    2.13              720107             1211.89        -1.16276e+07         3.02558e+08
    2.15              716593              1220.5         -1.1442e+07         2.98318e+08
    2.17              712651             1228.95        -1.12494e+07         2.93995e+08
    2.19              708300             1237.08        -1.10511e+07         2.89614e+08
    2.21              703558             1244.75        -1.08486e+07         2.85199e+08
    2.23              698440             1251.82        -1.06433e+07         2.80777e+08
    2.25              692959             1258.13        -1.04367e+07         2.76373e+08
    2.27              687119             1263.54        -1.02301e+07         2.72009e+08
    2.29              680923             1267.94        -1.00249e+07         2.67707e+08
    2.31              674367              1271.2        -9.82226e+06         2.63486e+08
    2.33              667446             1273.22        -9.62319e+06         2.59362e+08
    2.35              660153             1273.94        -9.42863e+06         2.55348e+08
    2.37              652479             1273.28        -9.23936e+06         2.51454e+08
    2.39              644422             1271.23          -9.056e+06          2.4769e+08
    2.41              635981             1267.77        -8.87906e+06         2.44061e+08
    2.43              627162              1262.9        -8.70891e+06         2.40571e+08
    2.45              617979             1256.67        -8.54581e+06         2.37225e+08
    2.47              608455             1249.14        -8.38994e+06         2.34022e+08
    2.49              598618             1240.38        -8.24139e+06         2.30967e+08
    2.51              588508             1230.49        -8.10018e+06         2.28058e+08
    2.53              578169             1219.59         -7.9663e+06         2.25298e+08
    2.55              567653             1207.78         -7.8397e+06         2.22688e+08
    2.57              557013             1195.21        -7.72029e+06          2.2023e+08
    2.59              546309             1182.01        -7.60799e+06         2.17925e+08
    2.61              535597             1168.33         -7.5027e+06         2.15777e+08
    2.63              524934              1154.3        -7.40432e+06         2.13789e+08
    2.65              514376             1140.04        -7.31274e+06         2.11962e+08
    2.67              503973              1125.7        -7.22788e+06         2.10301e+08
    2.69              493773             1111.39        -7.14963e+06         2.08808e+08
    2.71              483816              1097.2        -7.07789e+06         2.07485e+08
    2.73              474139             1083.25        -7.01256e+06         2.06335e+08
    2.75              464772              1069.6        -6.95352e+06         2.05358e+08
    2.77              455742             1056.33        -6.90066e+06         2.04555e+08
    2.79              447067             1043.48        -6.85383e+06         2.03925e+08
    2.81              438761              1031.1        -6.81288e+06         2.03466e+08
    2.83              430836             1019.22        -6.77763e+06         2.03174e+08
    2.85              423296             1007.84        -6.74789e+06         2.03045e+08
    2.87              416143             996.971        -6.72344e+06         2.03073e+08
    2.89              409374             986.602        -6.70401e+06         2.03249e+08
    2.91              402986             976.715        -6.68931e+06         2.03565e+08
    2.93              396969             967.282        -6.67904e+06         2.04008e+08
    2.95              391314             958.268        -6.67284e+06         2.04567e+08
    2.97              386007             949.633        -6.67032e+06         2.05226e+08
    2.99              381036             941.333         -6.6711e+06         2.05971e+08
    3.01              376385             933.321        -6.67473e+06         2.06784e+08
    3.03              372038              925.55        -6.68078e+06         2.07648e+08
    3.05              367978             917.974        -6.68881e+06         2.08546e+08
    3.07              364188              910.55        -6.69838e+06         2.09459e+08
    3.09              360653              903.24        -6.70907e+06         2.10372e+08
    3.11              357357             896.013         -6.7205e+06         2.11268e+08
    3.13              354286             888.844        -6.73234e+06         2.12134e+08
    3.15              351428             881.718        -6.74433e+06         2.12959e+08
    3.17              348771             874.629        -6.75626e+06         2.13735e+08
    3.19              346309             867.583        -6.76804e+06         2.14458e+08
    3.21              344036             860.592        -6.77963e+06         2.15127e+08
    3.23              341949              853.68        -6.79113e+06         2.15744e+08
    3.25              340047             846.877        -6.80269e+06         2.16316e+08
    3.27              338333             840.221        -6.81458e+06         2.16853e+08
    3.29              336810             833.753        -6.82712e+06         2.17369e+08
    3.31              335487             827.519        -6.84072e+06         2.17878e+08
    3.33              334370             821.566        -6.85581e+06         2.18398e+08
    3.35              333469             815.938        -6.87288e+06         2.18947e+08
    3.37              332795             810.679        -6.89243e+06         2.19544e+08
    3.39              332359             805.827        -6.91496e+06         2.20208e+08
    3.41              332171             801.418        -6.94097e+06         2.20957e+08
    3.43              332244             797.476        -6.97094e+06         2.21807e+08
    3.45              332588             794.023        -7.00531e+06         2.22772e+08
    3.47              333215             791.069        -7.04449e+06         2.23867e+08
    3.49              334135             788.618        -7.08884e+06         2.25101e+08
    3.51              335357             786.665        -7.13871e+06         2.26483e+08
    3.53              336892             785.197        -7.19435e+06         2.28019e+08
    3.55              338747             784.194          -7.256e+06         2.29713e+08
    3.57              340931             783.626        -7.32384e+06         2.31565e+08
    3.59              343451             783.458        -7.39803e+06         2.33574e+08
    3.61              346313             783.649        -7.47864e+06         2.35738e+08
    3.63              349524              784.15        -7.56574e+06         2.38051e+08
    3.65              353089             784.908        -7.65934e+06         2.40506e+08
    3.67              357012             785.867        -7.75941e+06         2.43093e+08
    3.69              361297             786.963         -7.8659e+06         2.45802e+08
    3.71              365945             788.131        -7.97868e+06          2.4862e+08
    3.73              370960             789.303        -8.09764e+06         2.51535e+08
    3.75              376339             790.409        -8.22258e+06         2.54532e+08
    3.77              382082             791.379        -8.35331e+06         2.57594e+08
    3.79              388186             792.143        -8.48957e+06         2.60707e+08
    3.81              394644             792.633        -8.63109e+06         2.63855e+08
    3.83              401450             792.784        -8.77756e+06         2.67021e+08
    3.85              408591             792.539        -8.92862e+06         2.70189e+08
    3.87              416055             791.846         -9.0839e+06         2.73346e+08
    3.89              423822             790.664        -9.24297e+06         2.76478e+08
    3.91              431871             788.961        -9.40535e+06         2.79571e+08
    3.93              440173             786.716        -9.57052e+06         2.82616e+08
    3.95              448694             783.921        -9.73785e+06           2.856e+08
    3.97              457393             780.578        -9.90665e+06         2.88513e+08
    3.99              466222             776.702        -1.00761e+07         2.91346e+08
    4.01              475123             772.315        -1.02453e+07         2.94086e+08
    4.03              484029             767.446         -1.0413e+07          2.9672e+08
    4.05              492865              762.13        -1.05782e+07         2.99234e+08
    4.07              501545             756.403        -1.07393e+07         3.01609e+08
    4.09              509976             750.303        -1.08947e+07         3.03822e+08
    4.11              518055             743.863        -1.10426e+07         3.05848e+08
    4.13              525674             737.114        -1.11813e+07         3.07657e+08
    4.15              532721             730.078        -1.13085e+07         3.09218e+08
    4.17              539080             722.775        -1.14223e+07         3.10493e+08
    4.19              544641             715.215        -1.15206e+07         3.11447e+08
    4.21              549297             707.404        -1.16014e+07         3.12043e+08
    4.23              552949             699.341        -1.16629e+07         3.12245e+08
    4.25              555516             691.025        -1.17033e+07         3.12022e+08
    4.27              556929             682.452        -1.17214e+07         3.11346e+08
    4.29              557141             673.616        -1.17163e+07         3.10197e+08
    4.31              556126             664.517        -1.16872e+07         3.08564e+08
    4.33              553883             655.159        -1.16343e+07         3.06442e+08
    4.35              550433             645.549        -1.15577e+07         3.03837e+08
    4.37              545819             635.704        -1.14583e+07         3.00765e+08
    4.39              540107             625.644        -1.13374e+07          2.9725e+08
    4.41              533378             615.398        -1.11964e+07         2.93326e+08
    4.43              525730             605.001        -1.10373e+07         2.89031e+08
    4.45              517270             594.492        -1.08621e+07         2.84411e+08
