## w(eV)         sigma(Sm^-1)     kappa(W(mK)^-1)        L12/e(Am^-1)      L22/e^2(Wm^-1)
    0.01              763007             2171.66        -1.27655e+07         4.19301e+08
    0.03              763332             2171.48        -1.27663e+07         4.19218e+08
    0.05              763940              2171.1        -1.27669e+07         4.19032e+08
    0.07              764847             2170.51        -1.27677e+07         4.18752e+08
    0.09              766053             2169.69         -1.2769e+07         4.18382e+08
    0.11              767554             2168.62        -1.27708e+07         4.17924e+08
    0.13              769347             2167.25        -1.27733e+07         4.17381e+08
    0.15              771427             2165.55        -1.27766e+07         4.16758e+08
    0.17              773789             2163.48        -1.27809e+07         4.16058e+08
    0.19              776426             2160.99        -1.27864e+07         4.15285e+08
    0.21              779334             2158.03        -1.27933e+07         4.14446e+08
    0.23              782503             2154.55        -1.28018e+07         4.13545e+08
    0.25              785928             2150.49        -1.28123e+07         4.12589e+08
    0.27              789600              2145.8        -1.28249e+07         4.11582e+08
    0.29              793509             2140.42        -1.28399e+07         4.10533e+08
    0.31              797649              2134.3        -1.28577e+07         4.09446e+08
    0.33              802008             2127.39        -1.28784e+07         4.08328e+08
    0.35              806581             2119.63        -1.29023e+07         4.07188e+08
    0.37              811353             2110.99        -1.29298e+07         4.06029e+08
    0.39              816314              2101.4         -1.2961e+07         4.04857e+08
    0.41              821454             2090.84        -1.29961e+07          4.0368e+08
    0.43              826761             2079.27        -1.30355e+07         4.02503e+08
    0.45              832224             2066.65        -1.30792e+07         4.01331e+08
    0.47              837831             2052.94        -1.31276e+07          4.0017e+08
    0.49              843570             2038.14        -1.31806e+07         3.99023e+08
    0.51              849426             2022.21        -1.32385e+07         3.97895e+08
    0.53              855387             2005.15        -1.33013e+07         3.96789e+08
    0.55              861437             1986.94        -1.33691e+07         3.95708e+08
    0.57              867561             1967.57        -1.34417e+07         3.94655e+08
    0.59              873744             1947.05        -1.35193e+07          3.9363e+08
    0.61              879969             1925.38        -1.36017e+07         3.92636e+08
    0.63              886216             1902.56        -1.36887e+07         3.91672e+08
    0.65              892468             1878.62        -1.37801e+07         3.90737e+08
    0.67              898704             1853.58        -1.38757e+07         3.89831e+08
    0.69              904903             1827.46        -1.39753e+07         3.88952e+08
    0.71              911043             1800.29        -1.40783e+07         3.88098e+08
    0.73              917100             1772.11        -1.41845e+07         3.87264e+08
    0.75              923050             1742.96        -1.42934e+07         3.86449e+08
    0.77              928866             1712.89        -1.44045e+07         3.85647e+08
    0.79              934523             1681.96        -1.45173e+07         3.84854e+08
    0.81              939993             1650.22        -1.46311e+07         3.84065e+08
    0.83              945246             1617.74        -1.47454e+07         3.83275e+08
    0.85              950253             1584.59        -1.48596e+07         3.82478e+08
    0.87              954985             1550.84        -1.49728e+07         3.81668e+08
    0.89              959412             1516.57        -1.50845e+07         3.80838e+08
    0.91              963502             1481.87         -1.5194e+07         3.79984e+08
    0.93              967226             1446.81        -1.53006e+07         3.79099e+08
    0.95              970554             1411.49        -1.54034e+07         3.78177e+08
    0.97              973458                1376        -1.55019e+07         3.77214e+08
    0.99              975909             1340.43        -1.55954e+07         3.76203e+08
    1.01              977881             1304.87        -1.56832e+07          3.7514e+08
    1.03              979350             1269.41        -1.57648e+07         3.74022e+08
    1.05              980294             1234.16        -1.58394e+07         3.72845e+08
    1.07              980693              1199.2        -1.59067e+07         3.71607e+08
    1.09              980531             1164.61        -1.59661e+07         3.70305e+08
    1.11              979795             1130.49        -1.60173e+07         3.68939e+08
    1.13              978477             1096.92          -1.606e+07          3.6751e+08
    1.15              976571             1063.98        -1.60938e+07         3.66018e+08
    1.17              974077             1031.73        -1.61187e+07         3.64467e+08
    1.19              970999             1000.26        -1.61347e+07          3.6286e+08
    1.21              967348             969.615        -1.61416e+07         3.61201e+08
    1.23              963138              939.86        -1.61398e+07         3.59498e+08
    1.25              958389             911.045        -1.61293e+07         3.57756e+08
    1.27              953128             883.214        -1.61106e+07         3.55986e+08
    1.29              947386             856.404        -1.60841e+07         3.54196e+08
    1.31              941200             830.648        -1.60503e+07         3.52397e+08
    1.33              934612             805.969        -1.60099e+07         3.50601e+08
    1.35              927671             782.386        -1.59635e+07         3.48821e+08
    1.37              920429             759.912        -1.59121e+07          3.4707e+08
    1.39              912945             738.553        -1.58564e+07         3.45364e+08
    1.41              905281             718.311        -1.57974e+07         3.43717e+08
    1.43              897501             699.182        -1.57362e+07         3.42144e+08
    1.45              889677             681.159        -1.56739e+07         3.40663e+08
    1.47              881881             664.231        -1.56116e+07         3.39289e+08
    1.49              874188             648.384        -1.55504e+07         3.38039e+08
    1.51              866673             633.601        -1.54915e+07         3.36929e+08
    1.53              859415             619.864        -1.54362e+07         3.35974e+08
    1.55              852492             607.154        -1.53856e+07         3.35192e+08
    1.57              845980              595.45        -1.53408e+07         3.34596e+08
    1.59              839956             584.734        -1.53031e+07           3.342e+08
    1.61              834494             574.986        -1.52736e+07         3.34019e+08
    1.63              829664             566.188        -1.52532e+07         3.34064e+08
    1.65              825534             558.322        -1.52431e+07         3.34347e+08
    1.67              822167             551.374         -1.5244e+07         3.34876e+08
    1.69              819621             545.328        -1.52569e+07          3.3566e+08
    1.71              817949             540.172        -1.52824e+07         3.36706e+08
    1.73              817196             535.893        -1.53213e+07         3.38018e+08
    1.75              817402             532.479        -1.53739e+07         3.39599e+08
    1.77              818598              529.92        -1.54408e+07         3.41451e+08
    1.79              820808             528.202        -1.55221e+07         3.43573e+08
    1.81              824047             527.313        -1.56181e+07         3.45962e+08
    1.83              828323             527.238        -1.57287e+07         3.48614e+08
    1.85              833633             527.961        -1.58539e+07         3.51522e+08
    1.87              839967             529.464        -1.59934e+07         3.54678e+08
    1.89              847305             531.723        -1.61467e+07         3.58073e+08
    1.91              855617             534.715        -1.63135e+07         3.61693e+08
    1.93              864866             538.411         -1.6493e+07         3.65527e+08
    1.95              875006             542.779        -1.66845e+07         3.69558e+08
    1.97              885981             547.786        -1.68872e+07         3.73771e+08
    1.99              897730             553.395           -1.71e+07         3.78146e+08
    2.01              910180             559.565        -1.73219e+07         3.82666e+08
    2.03              923255             566.254        -1.75516e+07         3.87309e+08
    2.05              936869             573.419         -1.7788e+07         3.92055e+08
    2.07              950933             581.014        -1.80296e+07         3.96882e+08
    2.09              965350             588.991        -1.82752e+07         4.01766e+08
    2.11              980021             597.305        -1.85231e+07         4.06684e+08
    2.13              994841             605.907         -1.8772e+07         4.11613e+08
    2.15          1.0097e+06             614.749        -1.90202e+07         4.16528e+08
    2.17          1.0245e+06             623.783        -1.92663e+07         4.21406e+08
    2.19         1.03912e+06             632.962        -1.95086e+07         4.26222e+08
    2.21         1.05344e+06             642.237        -1.97457e+07         4.30952e+08
    2.23         1.06737e+06             651.564        -1.99759e+07         4.35573e+08
    2.25          1.0808e+06             660.894        -2.01978e+07         4.40062e+08
    2.27          1.0936e+06             670.183        -2.04098e+07         4.44394e+08
    2.29         1.10569e+06             679.385        -2.06105e+07         4.48549e+08
    2.31         1.11695e+06             688.456        -2.07986e+07         4.52505e+08
    2.33          1.1273e+06             697.351        -2.09726e+07         4.56242e+08
    2.35         1.13665e+06             706.028        -2.11314e+07         4.59739e+08
    2.37          1.1449e+06             714.442        -2.12739e+07         4.62978e+08
    2.39         1.15199e+06              722.55        -2.13988e+07         4.65943e+08
    2.41         1.15785e+06             730.311        -2.15054e+07         4.68615e+08
    2.43         1.16241e+06             737.682        -2.15926e+07         4.70982e+08
    2.45         1.16561e+06             744.622        -2.16597e+07         4.73028e+08
    2.47         1.16742e+06             751.088        -2.17062e+07         4.74742e+08
    2.49          1.1678e+06              757.04        -2.17314e+07         4.76112e+08
    2.51         1.16673e+06             762.439         -2.1735e+07         4.77131e+08
    2.53         1.16418e+06             767.244        -2.17167e+07         4.77789e+08
    2.55         1.16015e+06             771.417        -2.16764e+07         4.78082e+08
    2.57         1.15465e+06             774.921        -2.16139e+07         4.78004e+08
    2.59         1.14768e+06             777.719        -2.15295e+07         4.77553e+08
    2.61         1.13927e+06             779.777        -2.14234e+07         4.76728e+08
    2.63         1.12944e+06             781.061        -2.12959e+07         4.75529e+08
    2.65         1.11825e+06             781.541        -2.11474e+07          4.7396e+08
    2.67         1.10573e+06             781.188        -2.09786e+07         4.72024e+08
    2.69         1.09194e+06             779.976        -2.07902e+07         4.69727e+08
    2.71         1.07695e+06             777.883        -2.05829e+07         4.67076e+08
    2.73         1.06082e+06             774.886        -2.03577e+07         4.64081e+08
    2.75         1.04364e+06             770.971        -2.01155e+07         4.60752e+08
    2.77         1.02547e+06             766.124        -1.98574e+07         4.57101e+08
    2.79         1.00641e+06             760.336        -1.95846e+07         4.53141e+08
    2.81              986543             753.602        -1.92981e+07         4.48889e+08
    2.83              965965             745.922        -1.89994e+07         4.44359e+08
    2.85              944767             737.299        -1.86896e+07         4.39568e+08
    2.87              923047             727.742        -1.83701e+07         4.34535e+08
    2.89              900898             717.265        -1.80422e+07         4.29278e+08
    2.91              878418             705.886        -1.77073e+07         4.23818e+08
    2.93              855700             693.629        -1.73667e+07         4.18173e+08
    2.95              832836             680.522        -1.70218e+07         4.12364e+08
    2.97              809916             666.598        -1.66738e+07         4.06413e+08
    2.99              787026             651.898         -1.6324e+07         4.00338e+08
    3.01              764250             636.463        -1.59737e+07         3.94161e+08
    3.03              741663             620.343        -1.56239e+07         3.87901e+08
    3.05              719340             603.591        -1.52759e+07         3.81579e+08
    3.07              697347             586.265        -1.49306e+07         3.75212e+08
    3.09              675747             568.426        -1.45891e+07         3.68819e+08
    3.11              654593             550.141         -1.4252e+07         3.62417e+08
    3.13              633935             531.479        -1.39204e+07         3.56022e+08
    3.15              613815             512.513        -1.35948e+07         3.49648e+08
    3.17              594269             493.319        -1.32758e+07         3.43309e+08
    3.19              575326             473.973        -1.29639e+07         3.37018e+08
    3.21              557008             454.557        -1.26595e+07         3.30785e+08
    3.23              539330             435.148         -1.2363e+07         3.24619e+08
    3.25              522303             415.828        -1.20745e+07         3.18528e+08
    3.27              505931             396.676        -1.17941e+07          3.1252e+08
    3.29              490211             377.771        -1.15219e+07         3.06598e+08
    3.31              475136             359.188        -1.12578e+07         3.00766e+08
    3.33              460694                 341        -1.10016e+07         2.95028e+08
    3.35              446868             323.276        -1.07532e+07         2.89383e+08
    3.37              433638             306.082        -1.05122e+07         2.83833e+08
    3.39              420979             289.476        -1.02784e+07         2.78376e+08
    3.41              408866             273.514        -1.00514e+07         2.73011e+08
    3.43              397267             258.242        -9.83074e+06         2.67735e+08
    3.45              386152             243.703          -9.616e+06         2.62545e+08
    3.47              375489             229.932        -9.40671e+06         2.57438e+08
    3.49              365243             216.958         -9.2024e+06          2.5241e+08
    3.51              355381             204.804        -9.00259e+06         2.47458e+08
    3.53              345868             193.484        -8.80682e+06         2.42577e+08
    3.55              336673             183.012        -8.61463e+06         2.37764e+08
    3.57              327761              173.39        -8.42558e+06         2.33017e+08
    3.59              319103             164.619        -8.23927e+06         2.28333e+08
    3.61              310670             156.694        -8.05533e+06          2.2371e+08
    3.63              302433             149.607        -7.87342e+06         2.19146e+08
    3.65              294368             143.345        -7.69325e+06         2.14641e+08
    3.67              286452             137.893         -7.5146e+06         2.10196e+08
    3.69              278666             133.233        -7.33728e+06         2.05812e+08
    3.71              270992             129.344        -7.16114e+06         2.01491e+08
    3.73              263415             126.203        -6.98612e+06         1.97236e+08
    3.75              255924             123.785        -6.81218e+06         1.93052e+08
    3.77              248511             122.066        -6.63935e+06         1.88944e+08
    3.79              241168             121.017        -6.46773e+06         1.84918e+08
    3.81              233892             120.608        -6.29742e+06         1.80981e+08
    3.83              226682             120.811        -6.12862e+06         1.77139e+08
    3.85              219540             121.591        -5.96155e+06         1.73403e+08
    3.87              212469             122.917        -5.79645e+06         1.69779e+08
    3.89              205475             124.752        -5.63363e+06         1.66279e+08
    3.91              198565             127.059        -5.47341e+06          1.6291e+08
    3.93              191747             129.798        -5.31612e+06         1.59684e+08
    3.95              185032             132.928        -5.16214e+06         1.56609e+08
    3.97              178431             136.403        -5.01184e+06         1.53696e+08
    3.99              171957             140.176        -4.86561e+06         1.50954e+08
    4.01              165621             144.197        -4.72382e+06         1.48393e+08
    4.03              159436             148.411        -4.58686e+06          1.4602e+08
    4.05              153416             152.761        -4.45511e+06         1.43845e+08
    4.07              147574             157.187        -4.32891e+06         1.41875e+08
    4.09              141921             161.623        -4.20862e+06         1.40116e+08
    4.11              136472             166.004        -4.09454e+06         1.38574e+08
    4.13              131235              170.26        -3.98697e+06         1.37254e+08
    4.15              126224             174.318        -3.88616e+06          1.3616e+08
    4.17              121447             178.108        -3.79236e+06         1.35295e+08
    4.19              116912             181.556        -3.70575e+06         1.34659e+08
    4.21              112629             184.591        -3.62649e+06         1.34255e+08
    4.23              108603             187.148        -3.55471e+06          1.3408e+08
    4.25              104839             189.163         -3.4905e+06         1.34132e+08
    4.27              101341             190.584         -3.4339e+06          1.3441e+08
    4.29               98113             191.365        -3.38492e+06         1.34909e+08
    4.31             95155.4             191.475        -3.34354e+06         1.35623e+08
    4.33             92468.8             190.895        -3.30971e+06         1.36547e+08
    4.35             90052.3             189.623        -3.28332e+06         1.37674e+08
    4.37             87904.3             187.673        -3.26426e+06         1.38995e+08
    4.39             86021.1             185.076        -3.25238e+06         1.40502e+08
    4.41             84398.9             181.879        -3.24748e+06         1.42186e+08
    4.43             83032.9             178.145        -3.24938e+06         1.44037e+08
    4.45             81917.3             173.952        -3.25786e+06         1.46044e+08
