## w(eV)         sigma(Sm^-1)
    0.01              763007
    0.03              763332
    0.05              763940
    0.07              764847
    0.09              766053
    0.11              767554
    0.13              769347
    0.15              771427
    0.17              773789
    0.19              776426
    0.21              779334
    0.23              782503
    0.25              785928
    0.27              789600
    0.29              793509
    0.31              797649
    0.33              802008
    0.35              806581
    0.37              811353
    0.39              816314
    0.41              821454
    0.43              826761
    0.45              832224
    0.47              837831
    0.49              843570
    0.51              849426
    0.53              855387
    0.55              861437
    0.57              867561
    0.59              873744
    0.61              879969
    0.63              886216
    0.65              892468
    0.67              898704
    0.69              904903
    0.71              911043
    0.73              917100
    0.75              923050
    0.77              928866
    0.79              934523
    0.81              939993
    0.83              945246
    0.85              950253
    0.87              954985
    0.89              959412
    0.91              963502
    0.93              967226
    0.95              970554
    0.97              973458
    0.99              975909
    1.01              977881
    1.03              979350
    1.05              980294
    1.07              980693
    1.09              980531
    1.11              979795
    1.13              978477
    1.15              976571
    1.17              974077
    1.19              970999
    1.21              967348
    1.23              963138
    1.25              958389
    1.27              953128
    1.29              947386
    1.31              941200
    1.33              934612
    1.35              927671
    1.37              920429
    1.39              912945
    1.41              905281
    1.43              897501
    1.45              889677
    1.47              881881
    1.49              874188
    1.51              866673
    1.53              859415
    1.55              852492
    1.57              845980
    1.59              839956
    1.61              834494
    1.63              829664
    1.65              825534
    1.67              822167
    1.69              819621
    1.71              817949
    1.73              817196
    1.75              817402
    1.77              818598
    1.79              820808
    1.81              824047
    1.83              828323
    1.85              833633
    1.87              839967
    1.89              847305
    1.91              855617
    1.93              864866
    1.95              875006
    1.97              885981
    1.99              897730
    2.01              910180
    2.03              923255
    2.05              936869
    2.07              950933
    2.09              965350
    2.11              980021
    2.13              994841
    2.15          1.0097e+06
    2.17          1.0245e+06
    2.19         1.03912e+06
    2.21         1.05344e+06
    2.23         1.06737e+06
    2.25          1.0808e+06
    2.27          1.0936e+06
    2.29         1.10569e+06
    2.31         1.11695e+06
    2.33          1.1273e+06
    2.35         1.13665e+06
    2.37          1.1449e+06
    2.39         1.15199e+06
    2.41         1.15785e+06
    2.43         1.16241e+06
    2.45         1.16561e+06
    2.47         1.16742e+06
    2.49          1.1678e+06
    2.51         1.16673e+06
    2.53         1.16418e+06
    2.55         1.16015e+06
    2.57         1.15465e+06
    2.59         1.14768e+06
    2.61         1.13927e+06
    2.63         1.12944e+06
    2.65         1.11825e+06
    2.67         1.10573e+06
    2.69         1.09194e+06
    2.71         1.07695e+06
    2.73         1.06082e+06
    2.75         1.04364e+06
    2.77         1.02547e+06
    2.79         1.00641e+06
    2.81              986543
    2.83              965965
    2.85              944767
    2.87              923047
    2.89              900898
    2.91              878418
    2.93              855700
    2.95              832836
    2.97              809916
    2.99              787026
    3.01              764250
    3.03              741663
    3.05              719340
    3.07              697347
    3.09              675747
    3.11              654593
    3.13              633935
    3.15              613815
    3.17              594269
    3.19              575326
    3.21              557008
    3.23              539330
    3.25              522303
    3.27              505931
    3.29              490211
    3.31              475136
    3.33              460694
    3.35              446868
    3.37              433638
    3.39              420979
    3.41              408866
    3.43              397267
    3.45              386152
    3.47              375489
    3.49              365243
    3.51              355381
    3.53              345868
    3.55              336673
    3.57              327761
    3.59              319103
    3.61              310670
    3.63              302433
    3.65              294368
    3.67              286452
    3.69              278666
    3.71              270992
    3.73              263415
    3.75              255924
    3.77              248511
    3.79              241168
    3.81              233892
    3.83              226682
    3.85              219540
    3.87              212469
    3.89              205475
    3.91              198565
    3.93              191747
    3.95              185032
    3.97              178431
    3.99              171957
    4.01              165621
    4.03              159436
    4.05              153416
    4.07              147574
    4.09              141921
    4.11              136472
    4.13              131235
    4.15              126224
    4.17              121447
    4.19              116912
    4.21              112629
    4.23              108603
    4.25              104839
    4.27              101341
    4.29               98113
    4.31             95155.4
    4.33             92468.8
    4.35             90052.3
    4.37             87904.3
    4.39             86021.1
    4.41             84398.9
    4.43             83032.9
    4.45             81917.3
    4.47             81045.9
    4.49             80411.6
    4.51             80006.9
    4.53             79823.9
    4.55             79854.5
    4.57             80090.2
    4.59             80522.6
    4.61             81143.1
    4.63             81943.2
    4.65             82914.5
    4.67             84048.9
    4.69             85338.5
    4.71             86775.4
    4.73             88352.4
    4.75             90062.4
    4.77             91898.6
    4.79             93854.7
    4.81             95924.5
    4.83             98102.5
    4.85              100383
    4.87              102761
    4.89              105231
    4.91              107789
    4.93              110429
    4.95              113148
    4.97              115939
    4.99              118798
    5.01              121720
    5.03              124700
    5.05              127732
    5.07              130811
    5.09              133930
    5.11              137083
    5.13              140262
    5.15              143461
    5.17              146672
    5.19              149886
    5.21              153095
    5.23              156291
    5.25              159464
    5.27              162605
    5.29              165706
    5.31              168757
    5.33              171748
    5.35              174672
    5.37              177520
    5.39              180284
    5.41              182957
    5.43              185533
    5.45              188005
    5.47              190369
    5.49              192623
    5.51              194764
    5.53              196790
    5.55              198703
    5.57              200505
    5.59              202198
    5.61              203789
    5.63              205282
    5.65              206687
    5.67              208013
    5.69              209269
    5.71              210468
    5.73              211622
    5.75              212744
    5.77              213851
    5.79              214955
    5.81              216073
    5.83              217219
    5.85              218410
    5.87              219660
    5.89              220984
    5.91              222396
    5.93              223908
    5.95              225533
    5.97              227280
    5.99              229159
    6.01              231177
    6.03              233340
    6.05              235651
    6.07              238112
    6.09              240722
    6.11              243481
    6.13              246382
    6.15              249420
    6.17              252586
    6.19              255871
    6.21              259263
    6.23              262748
    6.25              266311
    6.27              269937
    6.29              273608
    6.31              277305
    6.33              281010
    6.35              284705
    6.37              288368
    6.39              291980
    6.41              295521
    6.43              298973
    6.45              302316
    6.47              305531
    6.49              308602
    6.51              311512
    6.53              314244
    6.55              316784
    6.57              319119
    6.59              321237
    6.61              323125
    6.63              324776
    6.65              326179
    6.67              327327
    6.69              328215
    6.71              328837
    6.73              329188
    6.75              329267
    6.77              329070
    6.79              328596
    6.81              327846
    6.83              326819
    6.85              325515
    6.87              323937
    6.89              322086
    6.91              319965
    6.93              317578
    6.95              314926
    6.97              312015
    6.99              308848
    7.01              305431
    7.03              301768
    7.05              297866
    7.07              293730
    7.09              289368
    7.11              284787
    7.13              279996
    7.15              275003
    7.17              269817
    7.19              264450
    7.21              258912
    7.23              253215
    7.25              247373
    7.27              241399
    7.29              235307
    7.31              229113
    7.33              222834
    7.35              216486
    7.37              210087
    7.39              203655
    7.41              197209
    7.43              190768
    7.45              184353
    7.47              177983
    7.49              171677
    7.51              165457
    7.53              159342
    7.55              153351
    7.57              147504
    7.59              141819
    7.61              136314
    7.63              131006
    7.65              125912
    7.67              121046
    7.69              116422
    7.71              112053
    7.73              107950
    7.75              104123
    7.77              100578
    7.79             97324.2
    7.81             94364.5
    7.83             91702.6
    7.85             89339.6
    7.87             87275.1
    7.89             85506.9
    7.91             84031.2
    7.93             82842.4
    7.95             81933.3
    7.97             81295.2
    7.99             80917.6
    8.01             80789.1
    8.03             80896.5
    8.05             81225.8
    8.07             81761.6
    8.09             82487.6
    8.11             83386.9
    8.13             84441.7
    8.15             85633.6
    8.17             86943.9
    8.19             88353.6
    8.21             89843.6
    8.23             91394.8
    8.25             92988.4
    8.27             94605.9
    8.29               96229
    8.31             97840.4
    8.33             99423.1
    8.35              100961
    8.37              102440
    8.39              103845
    8.41              105164
    8.43              106384
    8.45              107496
    8.47              108490
    8.49              109358
    8.51              110093
    8.53              110691
    8.55              111147
    8.57              111458
    8.59              111624
    8.61              111643
    8.63              111516
    8.65              111246
    8.67              110835
    8.69              110287
    8.71              109606
    8.73              108797
    8.75              107867
    8.77              106821
    8.79              105666
    8.81              104410
    8.83              103059
    8.85              101621
    8.87              100104
    8.89             98515.1
    8.91             96861.3
    8.93             95150.2
    8.95             93388.7
    8.97             91583.8
    8.99               89742
    9.01             87869.5
    9.03             85972.3
    9.05             84055.9
    9.07             82125.7
    9.09             80186.5
    9.11             78242.8
    9.13               76299
    9.15               74359
    9.17             72426.3
    9.19             70504.3
    9.21             68596.1
    9.23             66704.6
    9.25             64832.4
    9.27             62981.9
    9.29             61155.3
    9.31               59355
    9.33             57582.9
    9.35             55840.9
    9.37             54130.8
    9.39             52454.3
    9.41             50813.2
    9.43               49209
    9.45             47643.2
    9.47             46117.5
    9.49             44633.1
    9.51             43191.5
    9.53             41793.9
    9.55             40441.8
    9.57             39136.3
    9.59             37878.4
    9.61             36669.2
    9.63             35509.6
    9.65             34400.3
    9.67             33342.2
    9.69             32335.7
    9.71             31381.3
    9.73             30479.2
    9.75             29629.7
    9.77             28832.5
    9.79             28087.6
    9.81             27394.6
    9.83             26752.9
    9.85             26161.8
    9.87             25620.4
    9.89             25127.7
    9.91             24682.4
    9.93             24283.2
    9.95             23928.4
    9.97             23616.4
    9.99             23345.3
   10.01             23113.1
   10.03             22917.8
   10.05             22757.1
   10.07             22628.7
   10.09             22530.3
   10.11             22459.3
   10.13             22413.4
   10.15               22390
   10.17             22386.4
   10.19             22400.3
   10.21             22428.9
   10.23             22469.8
   10.25             22520.6
   10.27             22578.7
   10.29             22641.8
   10.31             22707.6
   10.33             22773.9
   10.35             22838.6
   10.37             22899.7
   10.39             22955.4
   10.41             23003.8
   10.43             23043.3
   10.45             23072.4
   10.47             23089.7
   10.49             23093.9
   10.51               23084
   10.53             23058.9
   10.55             23017.7
   10.57             22959.9
   10.59             22884.6
   10.61             22791.6
   10.63             22680.4
   10.65             22550.8
   10.67             22402.6
   10.69             22235.9
   10.71             22050.8
   10.73             21847.4
   10.75             21626.1
   10.77             21387.1
   10.79             21131.1
   10.81             20858.6
   10.83             20570.2
   10.85             20266.6
   10.87             19948.6
   10.89               19617
   10.91             19272.8
   10.93             18916.9
   10.95             18550.3
   10.97             18174.1
   10.99             17789.3
   11.01             17397.1
   11.03             16998.6
   11.05               16595
   11.07             16187.4
   11.09               15777
   11.11               15365
   11.13             14952.5
   11.15             14540.6
   11.17             14130.5
   11.19             13723.1
   11.21             13319.6
   11.23             12920.9
   11.25             12527.8
   11.27             12141.3
   11.29               11762
   11.31             11390.8
   11.33             11028.2
   11.35             10674.7
   11.37             10330.9
   11.39             9997.02
   11.41             9673.43
   11.43             9360.31
   11.45             9057.77
   11.47             8765.83
   11.49             8484.44
   11.51              8213.5
   11.53              7952.8
   11.55              7702.1
   11.57             7461.07
   11.59             7229.36
   11.61             7006.56
   11.63             6792.22
   11.65             6585.87
   11.67             6387.02
   11.69             6195.16
   11.71             6009.78
   11.73             5830.35
   11.75             5656.38
   11.77             5487.37
   11.79             5322.85
   11.81             5162.37
   11.83             5005.51
   11.85             4851.88
   11.87             4701.14
   11.89             4552.97
   11.91             4407.11
   11.93             4263.32
   11.95             4121.42
   11.97             3981.27
   11.99             3842.75
   12.01             3705.81
   12.03             3570.42
   12.05             3436.59
   12.07             3304.36
   12.09              3173.8
   12.11                3045
   12.13             2918.08
   12.15             2793.18
   12.17             2670.45
   12.19             2550.05
   12.21             2432.15
   12.23             2316.93
   12.25             2204.55
   12.27              2095.2
   12.29             1989.04
   12.31             1886.22
   12.33             1786.89
   12.35             1691.19
   12.37             1599.24
   12.39             1511.15
   12.41             1426.99
   12.43             1346.85
   12.45             1270.76
   12.47             1198.77
   12.49             1130.88
   12.51              1067.1
   12.53              1007.4
   12.55             951.734
   12.57             900.055
   12.59              852.29
   12.61             808.345
   12.63              768.14
   12.65             731.555
   12.67             698.473
   12.69             668.765
   12.71             642.304
   12.73             618.947
   12.75              598.54
   12.77             580.948
   12.79             566.021
   12.81             553.614
   12.83             543.583
   12.85             535.786
   12.87             530.086
   12.89             526.352
   12.91             524.458
   12.93             524.286
   12.95             525.726
   12.97             528.676
   12.99             533.043
   13.01             538.747
   13.03             545.715
   13.05             553.884
   13.07             563.204
   13.09             573.635
   13.11             585.149
   13.13             597.728
   13.15             611.364
   13.17             626.057
   13.19             641.831
   13.21             658.708
   13.23             676.721
   13.25             695.914
   13.27             716.342
   13.29             738.096
   13.31             761.198
   13.33             785.751
   13.35             811.842
   13.37             839.567
   13.39             869.029
   13.41             900.337
   13.43             933.608
   13.45             968.964
   13.47             1006.53
   13.49             1046.46
   13.51             1088.87
   13.53             1133.93
   13.55             1181.78
   13.57              1232.6
   13.59             1286.55
   13.61             1343.81
   13.63             1404.57
   13.65             1469.02
   13.67             1537.38
   13.69             1609.86
   13.71             1686.69
   13.73              1768.1
   13.75             1854.36
