## w(eV)      kappa(W(mK)^-1)     error(W(mK)^-1)
    0.01             1238.53            0.164347
    0.03             1238.55            0.164042
    0.05              1238.5            0.163829
    0.07             1238.45            0.163513
    0.09             1238.35            0.163087
    0.11             1238.23            0.162552
    0.13             1238.08             0.16191
    0.15             1237.92             0.16116
    0.17             1237.74              0.1603
    0.19             1237.53            0.159332
    0.21             1237.31            0.158252
    0.23             1237.08            0.157062
    0.25             1236.83             0.15576
    0.27             1236.57            0.154345
    0.29              1236.3            0.152816
    0.31             1236.02            0.151171
    0.33             1235.74            0.149462
    0.35             1235.45            0.147533
    0.37             1235.17            0.145536
    0.39             1234.89            0.143418
    0.41             1234.61            0.141178
    0.43             1234.34            0.138815
    0.45             1234.09            0.136326
    0.47             1233.85            0.133711
    0.49             1233.62             0.13097
    0.51             1233.42            0.128096
    0.53             1233.24             0.12509
    0.55             1233.09             0.12195
    0.57             1232.97            0.118674
    0.59             1232.89             0.11526
    0.61             1232.84            0.111705
    0.63             1232.83            0.108009
    0.65             1232.86            0.104169
    0.67             1232.94            0.100183
    0.69             1233.06           0.0960494
    0.71             1233.24           0.0917657
    0.73             1233.48           0.0873301
    0.75             1233.77            0.082741
    0.77             1234.12           0.0779965
    0.79             1234.54           0.0730948
    0.81             1235.02           0.0680343
    0.83             1235.57           0.0628135
    0.85             1236.18           0.0574309
    0.87             1236.87           0.0518853
    0.89             1237.63           0.0462307
    0.91             1238.46           0.0403022
    0.93             1239.37           0.0342619
    0.95             1240.35           0.0280555
    0.97             1241.41           0.0216828
    0.99             1242.55           0.0151438
    1.01             1243.77          0.00843877
    1.03             1245.06          0.00156859
    1.05             1246.43          0.00546583
    1.07             1247.87            0.012663
    1.09             1249.39           0.0200212
    1.11             1250.99           0.0275381
    1.13             1252.65           0.0352111
    1.15             1254.39           0.0430369
    1.17              1256.2            0.051012
    1.19             1258.07           0.0591321
    1.21             1260.01           0.0673926
    1.23             1262.01           0.0757881
    1.25             1264.06           0.0843129
    1.27             1266.17           0.0929605
    1.29             1268.33            0.101724
    1.31             1270.54            0.110595
    1.33             1272.79            0.119567
    1.35             1275.07             0.12863
    1.37             1277.39            0.137774
    1.39             1279.74             0.14699
    1.41             1282.12            0.156262
    1.43             1284.51            0.165588
    1.45             1286.92            0.174952
    1.47             1289.33            0.184341
    1.49             1291.75            0.193743
    1.51             1294.16            0.203144
    1.53             1296.57             0.21253
    1.55             1298.96            0.221887
    1.57             1301.34            0.231201
    1.59             1303.68            0.240456
    1.61                1306             0.24959
    1.63             1308.28            0.258728
    1.65             1310.53            0.267717
    1.67             1312.72            0.276585
    1.69             1314.86            0.285316
    1.71             1316.95            0.293895
    1.73             1318.97            0.302307
    1.75             1320.93            0.310535
    1.77             1322.81            0.318565
    1.79             1324.62            0.326382
    1.81             1326.35             0.33397
    1.83                1328            0.341316
    1.85             1329.55            0.348406
    1.87             1331.02            0.355226
    1.89             1332.39            0.361764
    1.91             1333.66            0.368008
    1.93             1334.83            0.373945
    1.95             1335.89            0.379565
    1.97             1336.85            0.384859
    1.99              1337.7            0.389817
    2.01             1338.43            0.394431
    2.03             1339.05            0.398694
    2.05             1339.55            0.402597
    2.07             1339.94            0.406137
    2.09              1340.2            0.409308
    2.11             1340.34            0.411916
    2.13             1340.36            0.414526
    2.15             1340.25             0.41657
    2.17             1340.02            0.418233
    2.19             1339.65            0.419517
    2.21             1339.16            0.420421
    2.23             1338.53            0.420946
    2.25             1337.77            0.421095
    2.27             1336.87             0.42087
    2.29             1335.84            0.420275
    2.31             1334.67            0.419314
    2.33             1333.36            0.417993
    2.35              1331.9            0.416316
    2.37              1330.3             0.41429
    2.39             1328.55            0.411922
    2.41             1326.65             0.40922
    2.43              1324.6            0.406192
    2.45             1322.39            0.402845
    2.47             1320.02             0.39919
    2.49              1317.5            0.395236
    2.51              1314.8            0.390993
    2.53             1311.94            0.386471
    2.55              1308.9            0.381682
    2.57             1305.69            0.376636
    2.59              1302.3            0.371346
    2.61             1298.73            0.365824
    2.63             1294.97            0.360081
    2.65             1291.03            0.354131
    2.67             1286.89            0.347986
    2.69             1282.55            0.341659
    2.71             1278.02            0.335164
    2.73             1273.29            0.328515
    2.75             1268.35            0.321724
    2.77             1263.21            0.314805
    2.79             1257.87            0.307771
    2.81             1252.32            0.300636
    2.83             1246.56            0.293412
    2.85             1240.59            0.286114
    2.87             1234.42            0.278751
    2.89             1228.05            0.271337
    2.91             1221.47            0.263883
    2.93              1214.7              0.2564
    2.95             1207.73            0.248897
    2.97             1200.57            0.241385
    2.99             1193.23            0.233871
    3.01              1185.7            0.226364
    3.03                1178             0.21887
    3.05             1170.14            0.211395
    3.07             1162.12            0.203945
    3.09             1153.94            0.196524
    3.11             1145.63            0.189123
    3.13             1137.18            0.181778
    3.15             1128.62            0.174459
    3.17             1119.94            0.167176
    3.19             1111.16             0.15993
    3.21             1102.28            0.152721
    3.23             1093.33            0.145548
    3.25             1084.31            0.138409
    3.27             1075.23            0.131303
    3.29              1066.1            0.124229
    3.31             1056.93            0.117184
    3.33             1047.74            0.110167
    3.35             1038.53            0.103175
    3.37             1029.32           0.0962082
    3.39             1020.11           0.0892642
    3.41             1010.91           0.0823425
    3.43             1001.73           0.0754425
    3.45             992.583           0.0685642
    3.47             983.472           0.0617082
    3.49             974.404           0.0548755
    3.51             965.387           0.0480677
    3.53             956.426           0.0412871
    3.55             947.527           0.0345365
    3.57             938.695           0.0278192
    3.59             929.933           0.0211391
    3.61             921.246           0.0145007
    3.63             912.635          0.00790884
    3.65             904.105          0.00136889
    3.67             895.657           0.0051134
    3.69             887.291           0.0115319
    3.71             879.009           0.0178803
    3.73             870.812           0.0241519
    3.75             862.699           0.0303399
    3.77             854.671           0.0364374
    3.79             846.725           0.0424384
    3.81             838.862           0.0483339
    3.83             831.079            0.054118
    3.85             823.376           0.0597837
    3.87             815.749           0.0653242
    3.89             808.197            0.070733
    3.91             800.718            0.076033
    3.93              793.31           0.0811106
    3.95             785.969            0.086106
    3.97             778.692           0.0909266
    3.99             771.478           0.0955864
    4.01             764.323            0.100081
    4.03             757.225            0.104405
    4.05             750.182            0.108554
    4.07             743.189            0.112526
    4.09             736.245            0.116316
    4.11             729.348            0.119923
    4.13             722.494            0.123342
    4.15             715.682            0.126573
    4.17             708.909            0.129613
    4.19             702.174            0.132461
    4.21             695.475            0.135117
    4.23             688.809            0.137579
    4.25             682.177            0.139848
    4.27             675.575            0.141923
    4.29             669.004            0.143805
    4.31             662.462            0.145495
    4.33             655.949            0.146994
    4.35             649.465            0.148303
    4.37             643.008            0.149424
    4.39              636.58             0.15036
    4.41             630.181            0.151111
    4.43             623.811            0.151681
    4.45              617.47            0.152072
    4.47              611.16            0.152287
    4.49             604.882            0.152329
    4.51             598.637            0.152202
    4.53             592.426            0.151908
    4.55             586.253            0.151451
    4.57             580.118            0.150834
    4.59             574.023            0.150062
    4.61             567.972            0.149138
    4.63             561.967            0.148066
    4.65              556.01            0.146849
    4.67             550.105            0.145492
    4.69             544.254            0.143999
    4.71             538.462            0.142374
    4.73             532.731             0.14062
    4.75             527.066            0.138742
    4.77              521.47            0.136743
    4.79             515.947            0.134627
    4.81             510.502            0.132398
    4.83             505.138            0.130061
    4.85             499.861            0.127617
    4.87             494.674            0.125072
    4.89             489.583            0.122428
    4.91             484.592            0.119689
    4.93             479.707            0.116858
    4.95             474.931            0.113938
    4.97             470.271            0.110931
    4.99             465.732            0.107843
    5.01             461.318            0.104674
    5.03             457.035            0.101427
    5.05             452.887           0.0981069
    5.07             448.881           0.0947144
    5.09             445.021           0.0912527
    5.11             441.313           0.0877244
    5.13              437.76           0.0841321
    5.15             434.368           0.0804786
    5.17             431.142           0.0768206
    5.19             428.085           0.0729987
    5.21             425.202           0.0691779
    5.23             422.497           0.0653071
    5.25             419.974           0.0613895
    5.27             417.635           0.0574283
    5.29             415.483           0.0534269
    5.31             413.521           0.0493887
    5.33             411.751           0.0453175
    5.35             410.173            0.041217
    5.37             408.791           0.0370912
    5.39             407.603           0.0329442
    5.41             406.609             0.02878
    5.43              405.81            0.024603
    5.45             405.204           0.0204176
    5.47              404.79            0.016228
    5.49             404.565           0.0120387
    5.51             404.527          0.00785401
    5.53             404.672           0.0036784
    5.55             404.997         0.000483836
    5.57             405.497          0.00462754
    5.59             406.168          0.00875116
    5.61             407.004           0.0128479
    5.63                 408           0.0169147
    5.65             409.149           0.0209476
    5.67             410.446           0.0249427
    5.69             411.884           0.0288964
    5.71             413.455           0.0328049
    5.73             415.152           0.0366648
    5.75             416.967           0.0404726
    5.77             418.894           0.0442248
    5.79             420.923            0.047918
    5.81             423.048           0.0515489
    5.83             425.259           0.0551141
    5.85             427.549           0.0586102
    5.87             429.909           0.0620339
    5.89             432.331           0.0653817
    5.91             434.808           0.0686501
    5.93              437.33           0.0718357
    5.95              439.89           0.0749348
    5.97              442.48           0.0779438
    5.99             445.092           0.0808589
    6.01             447.718           0.0836763
    6.03             450.352           0.0863921
    6.05             452.985           0.0890024
    6.07              455.61           0.0915032
    6.09             458.222           0.0938904
    6.11             460.812           0.0961597
    6.13             463.376           0.0983074
    6.15             465.906            0.100329
    6.17             468.396            0.102221
    6.19             470.842             0.10398
    6.21             473.239            0.105598
    6.23              475.58            0.107075
    6.25             477.862            0.108405
    6.27             480.079            0.109586
    6.29             482.229            0.110613
    6.31             484.308            0.111483
    6.33             486.311            0.112192
    6.35             488.237            0.112738
    6.37             490.082            0.113117
    6.39             491.844            0.113325
    6.41             493.521            0.113362
    6.43             495.111            0.113224
    6.45             496.613             0.11291
    6.47             498.026            0.112417
    6.49             499.348            0.111745
    6.51             500.581            0.110892
    6.53             501.722            0.109857
    6.55             502.774             0.10864
    6.57             503.735            0.107241
    6.59             504.607             0.10566
    6.61             505.391            0.103898
    6.63             506.087            0.101955
    6.65             506.698           0.0998336
    6.67             507.226           0.0975347
    6.69             507.671           0.0950607
    6.71             508.037            0.092414
    6.73             508.325           0.0895976
    6.75             508.538           0.0866145
    6.77             508.679           0.0834685
    6.79             508.751           0.0801636
    6.81             508.756            0.076704
    6.83             508.697           0.0730947
    6.85             508.578           0.0693405
    6.87             508.402           0.0654471
    6.89             508.172             0.06142
    6.91             507.891           0.0572648
    6.93             507.563           0.0529892
    6.95             507.191           0.0485993
    6.97             506.777           0.0441021
    6.99             506.326           0.0395047
    7.01             505.841           0.0348148
    7.03             505.324           0.0300401
    7.05             504.779           0.0251886
    7.07             504.207           0.0202686
    7.09             503.613           0.0152887
    7.11             502.999           0.0102572
    7.13             502.366          0.00518289
    7.15             501.718         7.47502e-05
    7.17             501.056          0.00505824
    7.19             500.383            0.010207
    7.21             499.699           0.0153623
    7.23             499.007           0.0205151
    7.25             498.307            0.025656
    7.27             497.601           0.0307758
    7.29             496.889           0.0358654
    7.31             496.171           0.0409155
    7.33             495.449           0.0459171
    7.35             494.722           0.0508612
    7.37              493.99           0.0557389
    7.39             493.252           0.0605416
    7.41             492.508           0.0652606
    7.43             491.756           0.0698876
    7.45             490.996           0.0744146
    7.47             490.226           0.0788336
    7.49             489.445           0.0831371
    7.51             488.651           0.0873178
    7.53             487.841           0.0913686
    7.55             487.013           0.0952825
    7.57             486.166           0.0990542
    7.59             485.297            0.102677
    7.61             484.402            0.106146
    7.63              483.48            0.109456
    7.65             482.527            0.112602
    7.67              481.54             0.11558
    7.69             480.517            0.118386
    7.71             479.453            0.121018
    7.73             478.347            0.123472
    7.75             477.194            0.125746
    7.77             475.992            0.127839
    7.79             474.737             0.12975
    7.81             473.426            0.131477
    7.83             472.057            0.133021
    7.85             470.625            0.134382
    7.87             469.129            0.135561
    7.89             467.565             0.13656
    7.91             465.931            0.137381
    7.93             464.223            0.138026
    7.95              462.44            0.138497
    7.97              460.58              0.1388
    7.99             458.639            0.138937
    8.01             456.616            0.138913
    8.03              454.51            0.138733
    8.05             452.318            0.138402
    8.07              450.04            0.137925
    8.09             447.674             0.13731
    8.11             445.219            0.136562
    8.13             442.675            0.135687
