## w(eV)      kappa(W(mK)^-1)     error(W(mK)^-1)
    0.01              1832.5           0.0541722
    0.03             1831.66           0.0542038
    0.05             1829.99           0.0541871
    0.07             1827.46           0.0542895
    0.09             1824.11           0.0544391
    0.11             1819.92           0.0546485
    0.13              1814.9           0.0549294
    0.15             1809.06           0.0552998
    0.17             1802.41           0.0557789
    0.19             1794.96           0.0563907
    0.21             1786.73           0.0572026
    0.23             1777.71           0.0581572
    0.25             1767.93           0.0593238
    0.27              1757.4           0.0607335
    0.29             1746.15           0.0624188
    0.31             1734.21           0.0644138
    0.33             1721.58           0.0667531
    0.35             1708.32           0.0694725
    0.37             1694.43           0.0726074
    0.39             1679.97           0.0761975
    0.41             1664.95           0.0802575
    0.43             1649.43           0.0848439
    0.45             1633.44           0.0899776
    0.47             1617.02           0.0956857
    0.49             1600.21            0.101991
    0.51             1583.06            0.108912
    0.53             1565.61            0.116465
    0.55              1547.9            0.124654
    0.57             1529.99            0.133483
    0.59              1511.9            0.142944
    0.61             1493.69            0.153022
    0.63             1475.39            0.163696
    0.65             1457.05            0.174934
    0.67             1438.68            0.186695
    0.69             1420.33            0.198931
    0.71             1402.03            0.211582
    0.73             1383.79            0.224581
    0.75             1365.63            0.237854
    0.77             1347.58            0.251318
    0.79             1329.63            0.264882
    0.81              1311.8            0.278452
    0.83             1294.07            0.291928
    0.85             1276.46            0.305181
    0.87             1258.95            0.318153
    0.89             1241.52            0.330717
    0.91             1224.16            0.342771
    0.93             1206.85            0.354213
    0.95             1189.57            0.364947
    0.97              1172.3            0.374882
    0.99             1155.01            0.383936
    1.01              1137.7            0.392033
    1.03             1120.34            0.399108
    1.05             1102.94            0.405104
    1.07             1085.48            0.409974
    1.09             1067.98            0.413691
    1.11             1050.47            0.416235
    1.13             1032.97            0.417602
    1.15             1015.54            0.417807
    1.17             998.252            0.416884
    1.19             981.185            0.414889
    1.21             964.449            0.411903
    1.23             948.168            0.408034
    1.25             932.481            0.403421
    1.27             917.548            0.398226
    1.29             903.535            0.392638
    1.31             890.622            0.386864
    1.33              878.99            0.381117
    1.35             868.821            0.375608
    1.37             860.287            0.370523
    1.39             853.553            0.366012
    1.41             848.763             0.36217
    1.43              846.04            0.359016
    1.45             845.483            0.356489
    1.47             847.163            0.354436
    1.49             851.121            0.352616
    1.51             857.368            0.350708
    1.53             865.887            0.348321
    1.55             876.637            0.345019
    1.57             889.546            0.340343
    1.59             904.525            0.333834
    1.61             921.468            0.325064
    1.63             940.248            0.313653
    1.65             960.731            0.299289
    1.67              982.77            0.281749
    1.69             1006.21              0.2609
    1.71              1030.9            0.236709
    1.73             1056.66            0.209242
    1.75             1083.34             0.17866
    1.77             1110.76            0.145209
    1.79             1138.76            0.109209
    1.81             1167.17           0.0710465
    1.83             1195.82           0.0311531
    1.85             1224.54           0.0100038
    1.87             1253.16           0.0519381
    1.89             1281.52           0.0941594
    1.91             1309.46            0.136187
    1.93             1336.82            0.177562
    1.95             1363.45            0.217867
    1.97             1389.19            0.256714
    1.99             1413.92            0.293784
    2.01              1437.5            0.328815
    2.03              1459.8            0.361613
    2.05             1480.71            0.392061
    2.07             1500.14              0.4201
    2.09             1517.99            0.445759
    2.11              1534.2            0.469134
    2.13             1548.69            0.490387
    2.15             1561.43            0.509743
    2.17             1572.39            0.527479
    2.19             1581.55            0.543917
    2.21             1588.92            0.559414
    2.23             1594.51            0.574344
    2.25             1598.36            0.589094
    2.27             1600.52            0.604041
    2.29             1601.04            0.619547
    2.31             1599.99            0.635941
    2.33             1597.46            0.653506
    2.35             1593.55            0.672469
    2.37             1588.35            0.692991
    2.39             1581.96            0.715157
    2.41             1574.49            0.738972
    2.43             1566.06            0.764356
    2.45             1556.76            0.791141
    2.47             1546.71            0.819078
    2.49             1536.01            0.847836
    2.51             1524.74            0.877014
    2.53                1513            0.906146
    2.55             1500.85            0.934718
    2.57             1488.38             0.96218
    2.59             1475.61            0.987966
    2.61              1462.6             1.01151
    2.63             1449.37             1.03225
    2.65             1435.93             1.04968
    2.67             1422.27             1.06335
    2.69             1408.38             1.07283
    2.71             1394.23             1.07787
    2.73             1379.77             1.07824
    2.75             1364.94             1.07387
    2.77             1349.68             1.06478
    2.79             1333.92             1.05113
    2.81             1317.57             1.03318
    2.83             1300.54             1.01131
    2.85             1282.75              0.9861
    2.87             1264.11            0.958049
    2.89             1244.53            0.927858
    2.91             1223.93            0.896249
    2.93             1202.25            0.863977
    2.95             1179.43            0.831803
    2.97             1155.44            0.800468
    2.99             1130.25            0.770667
    3.01             1103.88            0.743025
    3.03             1076.37            0.718075
    3.05             1047.81            0.696237
    3.07              1018.3            0.677806
    3.09             988.015            0.662941
    3.11              957.15            0.651656
    3.13             925.952            0.643821
    3.15             894.708            0.639164
    3.17             863.741            0.637274
    3.19             833.402            0.637608
    3.21             804.058            0.639505
    3.23             776.082            0.642203
    3.25             749.835            0.644863
    3.27             725.653            0.646591
    3.29             703.829            0.646497
    3.31             684.604            0.643722
    3.33             668.155            0.637496
    3.35             654.586            0.627184
    3.37             643.934            0.612334
    3.39             636.163            0.592699
    3.41             631.177            0.568258
    3.43             628.827             0.53921
    3.45             628.921            0.505954
    3.47             631.237            0.469055
    3.49             635.535            0.429199
    3.51             641.566            0.387148
    3.53             649.079            0.343689
    3.55             657.834            0.299595
    3.57             667.601            0.255585
    3.59             678.166            0.212305
    3.61             689.334            0.170302
    3.63             700.927             0.13002
    3.65             712.788           0.0918004
    3.67             724.777           0.0558785
    3.69              736.77           0.0223972
    3.71             748.659          0.00858426
    3.73             760.352           0.0370778
    3.75             771.768            0.063154
    3.77             782.834           0.0869292
    3.79             793.492            0.108554
    3.81             803.689            0.128202
    3.83             813.378             0.14606
    3.85             822.521            0.162323
    3.87             831.084            0.177181
    3.89             839.037            0.190816
    3.91             846.354            0.203402
    3.93             853.012            0.215096
    3.95             858.993            0.226038
    3.97             864.278            0.236349
    3.99             868.853            0.246129
    4.01             872.705            0.255461
    4.03             875.822            0.264405
    4.05             878.195            0.273003
    4.07             879.816            0.281282
    4.09             880.678            0.289251
    4.11             880.776            0.296865
    4.13             880.107            0.304218
    4.15             878.669            0.311172
    4.17             876.461            0.317726
    4.19             873.485            0.323836
    4.21             869.744            0.329453
    4.23             865.242            0.334527
    4.25             859.987            0.339006
    4.27             853.987            0.342839
    4.29             847.253            0.345978
    4.31             839.797            0.348379
    4.33             831.635            0.350004
    4.35             822.783            0.350819
    4.37             813.261            0.350801
    4.39              803.09            0.349932
    4.41             792.294            0.348204
    4.43             780.897            0.345617
    4.45             768.929            0.342184
    4.47             756.417            0.337922
    4.49             743.395            0.332859
    4.51             729.895            0.327035
    4.53             715.951            0.320494
    4.55             701.601            0.313289
    4.57             686.881            0.305481
    4.59             671.829            0.297136
    4.61             656.485            0.288326
    4.63             640.889            0.279127
    4.65              625.08            0.269618
    4.67             609.098            0.259881
    4.69             592.983            0.250002
    4.71             576.776            0.240054
    4.73             560.514            0.230124
    4.75             544.236            0.220288
    4.77             527.977            0.210622
    4.79             511.772            0.201197
    4.81             495.654            0.192074
    4.83             479.655            0.183312
    4.85             463.803            0.174964
    4.87             448.124            0.167057
    4.89             432.642            0.159636
    4.91             417.378            0.152716
    4.93              402.35            0.146308
    4.95             387.572             0.14041
    4.97             373.056            0.135009
    4.99             358.811            0.130082
    5.01             344.842            0.125593
    5.03             331.152            0.121497
    5.05             317.743            0.117738
    5.07             304.613            0.114251
    5.09             291.759            0.110964
    5.11             279.179            0.107804
    5.13             266.871             0.10469
    5.15             254.833            0.101546
    5.17             243.066           0.0982968
    5.19             231.575           0.0948768
    5.21             220.369           0.0912297
    5.23             209.461           0.0873136
    5.25             198.872           0.0831026
    5.27             188.627           0.0785888
    5.29             178.755           0.0737828
    5.31             169.293           0.0687124
    5.33             160.277           0.0634225
    5.35             151.749           0.0579691
    5.37             143.747           0.0524171
    5.39             136.311           0.0468271
    5.41             129.472           0.0412821
    5.43             123.261           0.0358394
    5.45               117.7           0.0305547
    5.47             112.805           0.0254719
    5.49             108.589           0.0206249
    5.51             105.054           0.0160322
    5.53             102.201           0.0116998
    5.55             100.024          0.00762212
    5.57             98.5167          0.00378164
    5.59             97.6685         0.000151551
    5.61             97.4687          0.00330304
    5.63             97.9059          0.00662357
    5.65             98.9693          0.00985646
    5.67             100.649           0.0130518
    5.69             102.935           0.0162622
    5.71             105.821           0.0195411
    5.73             109.299           0.0229425
    5.75             113.365           0.0265193
    5.77             118.013           0.0303226
    5.79             123.241           0.0344004
    5.81             129.046            0.038797
    5.83             135.423           0.0435516
    5.85             142.373           0.0486976
    5.87              149.89           0.0542611
    5.89             157.972           0.0602608
    5.91             166.615           0.0667065
    5.93             175.814           0.0735988
    5.95             185.562           0.0809284
    5.97             195.851           0.0886762
    5.99             206.672            0.096813
    6.01             218.012             0.10526
    6.03             229.858            0.114087
    6.05             242.193            0.123121
    6.07             254.997            0.132337
    6.09             268.248            0.141665
    6.11             281.921            0.151032
    6.13             295.985            0.160359
    6.15             310.408            0.169568
    6.17             325.153            0.178585
    6.19              340.18            0.187328
    6.21             355.443            0.195728
    6.23             370.893            0.203717
    6.25             386.477            0.211235
    6.27             402.137            0.218229
    6.29             417.813            0.224647
    6.31              433.44             0.23048
    6.33             448.949            0.235676
    6.35              464.27             0.24023
    6.37             479.329            0.244137
    6.39             494.051            0.247402
    6.41              508.36             0.25004
    6.43             522.179            0.252072
    6.45             535.431             0.25353
    6.47             548.042            0.254452
    6.49             559.937            0.254881
    6.51             571.046            0.254855
    6.53             581.304            0.254455
    6.55             590.647            0.253702
    6.57             599.018             0.25266
    6.59             606.369             0.25138
    6.61             612.655            0.249912
    6.63             617.841            0.248303
    6.65               621.9            0.246592
    6.67             624.813            0.244814
    6.69              626.57            0.242998
    6.71             627.172            0.241165
    6.73             626.627            0.239326
    6.75             624.954            0.237486
    6.77             622.182            0.235639
    6.79             618.348            0.233771
    6.81             613.496            0.231858
    6.83             607.682            0.229869
    6.85             600.965            0.227763
    6.87             593.415            0.225492
    6.89             585.104            0.222984
    6.91             576.113            0.220228
    6.93             566.524            0.217108
    6.95             556.423             0.21357
    6.97               545.9            0.209541
    6.99             535.043            0.204947
    7.01             523.944            0.199714
    7.03             512.691            0.193769
    7.05             501.372            0.187043
    7.07             490.073            0.179469
    7.09             478.876            0.170988
    7.11              467.86            0.161537
    7.13             457.099            0.151091
    7.15             446.662            0.139606
    7.17             436.614             0.12706
    7.19             427.012            0.113439
    7.21             417.909           0.0987468
    7.23             409.353           0.0829955
    7.25             401.384           0.0662131
    7.27             394.037            0.048441
    7.29              387.34           0.0296544
    7.31             381.319            0.010162
    7.33             375.989           0.0101937
    7.35             371.364           0.0312382
    7.37             367.451           0.0528652
    7.39             364.252           0.0749575
    7.41             361.764           0.0973886
    7.43              359.98            0.120023
    7.45             358.888            0.142721
    7.47             358.472            0.165334
    7.49             358.711            0.187713
    7.51             359.579            0.209707
    7.53             361.048            0.231162
    7.55             363.083            0.251931
    7.57             365.647            0.271867
    7.59             368.696             0.29083
    7.61             372.184            0.308687
    7.63              376.06            0.325312
    7.65             380.269            0.340593
    7.67             384.753            0.354426
    7.69              389.45            0.366721
    7.71             394.295            0.377404
    7.73             399.222            0.386411
    7.75             404.161            0.393697
    7.77             409.043             0.39923
    7.79             413.799            0.402996
    7.81              418.36            0.404994
    7.83             422.661             0.40524
    7.85             426.639            0.403767
    7.87             430.234            0.400619
    7.89             433.393            0.395859
    7.91             436.068            0.389562
    7.93             438.219            0.381816
    7.95             439.812            0.372724
    7.97             440.821              0.3624
    7.99              441.23             0.35097
    8.01             441.029            0.338569
    8.03             440.215            0.325344
    8.05             438.796            0.311447
    8.07             436.783            0.297039
    8.09             434.196            0.282284
    8.11             431.058            0.267348
    8.13             427.399            0.252396
