## w(eV)         sigma(Sm^-1)     kappa(W(mK)^-1)        L12/e(Am^-1)      L22/e^2(Wm^-1)
    0.01         1.17331e+06             1238.53        -1.96439e+07         4.46212e+08
    0.03         1.17306e+06             1238.55        -1.96404e+07         4.46169e+08
    0.05         1.17253e+06              1238.5        -1.96325e+07         4.46047e+08
    0.07         1.17171e+06             1238.45        -1.96203e+07         4.45865e+08
    0.09         1.17062e+06             1238.35         -1.9604e+07         4.45614e+08
    0.11         1.16926e+06             1238.23        -1.95836e+07         4.45302e+08
    0.13         1.16763e+06             1238.08        -1.95592e+07         4.44928e+08
    0.15         1.16573e+06             1237.92        -1.95308e+07         4.44492e+08
    0.17         1.16357e+06             1237.74        -1.94984e+07         4.43996e+08
    0.19         1.16115e+06             1237.53         -1.9462e+07         4.43438e+08
    0.21         1.15847e+06             1237.31        -1.94218e+07         4.42822e+08
    0.23         1.15554e+06             1237.08        -1.93777e+07         4.42145e+08
    0.25         1.15235e+06             1236.83        -1.93298e+07          4.4141e+08
    0.27         1.14892e+06             1236.57        -1.92782e+07         4.40617e+08
    0.29         1.14525e+06              1236.3        -1.92228e+07         4.39767e+08
    0.31         1.14135e+06             1236.02        -1.91638e+07          4.3886e+08
    0.33         1.13721e+06             1235.74        -1.91012e+07         4.37897e+08
    0.35         1.13284e+06             1235.45         -1.9035e+07          4.3688e+08
    0.37         1.12826e+06             1235.17        -1.89654e+07          4.3581e+08
    0.39         1.12346e+06             1234.89        -1.88924e+07         4.34686e+08
    0.41         1.11844e+06             1234.61        -1.88162e+07         4.33511e+08
    0.43         1.11323e+06             1234.34        -1.87366e+07         4.32285e+08
    0.45         1.10782e+06             1234.09        -1.86539e+07          4.3101e+08
    0.47         1.10222e+06             1233.85        -1.85681e+07         4.29686e+08
    0.49         1.09644e+06             1233.62        -1.84794e+07         4.28316e+08
    0.51         1.09048e+06             1233.42        -1.83877e+07         4.26899e+08
    0.53         1.08435e+06             1233.24        -1.82932e+07         4.25437e+08
    0.55         1.07806e+06             1233.09        -1.81959e+07         4.23932e+08
    0.57         1.07161e+06             1232.97         -1.8096e+07         4.22384e+08
    0.59         1.06502e+06             1232.89        -1.79936e+07         4.20795e+08
    0.61         1.05829e+06             1232.84        -1.78886e+07         4.19167e+08
    0.63         1.05142e+06             1232.83        -1.77813e+07           4.175e+08
    0.65         1.04443e+06             1232.86        -1.76717e+07         4.15797e+08
    0.67         1.03732e+06             1232.94        -1.75599e+07         4.14057e+08
    0.69          1.0301e+06             1233.06        -1.74461e+07         4.12283e+08
    0.71         1.02277e+06             1233.24        -1.73302e+07         4.10476e+08
    0.73         1.01536e+06             1233.48        -1.72124e+07         4.08637e+08
    0.75         1.00785e+06             1233.77        -1.70928e+07         4.06768e+08
    0.77         1.00026e+06             1234.12        -1.69715e+07         4.04869e+08
    0.79              992595             1234.54        -1.68486e+07         4.02943e+08
    0.81              984865             1235.02        -1.67241e+07         4.00991e+08
    0.83              977075             1235.57        -1.65982e+07         3.99014e+08
    0.85              969232             1236.18         -1.6471e+07         3.97013e+08
    0.87              961343             1236.87        -1.63425e+07         3.94989e+08
    0.89              953413             1237.63        -1.62129e+07         3.92945e+08
    0.91              945451             1238.46        -1.60822e+07          3.9088e+08
    0.93              937461             1239.37        -1.59505e+07         3.88798e+08
    0.95              929450             1240.35        -1.58178e+07         3.86698e+08
    0.97              921424             1241.41        -1.56844e+07         3.84582e+08
    0.99              913389             1242.55        -1.55503e+07         3.82451e+08
    1.01              905349             1243.77        -1.54155e+07         3.80307e+08
    1.03              897311             1245.06        -1.52801e+07          3.7815e+08
    1.05              889279             1246.43        -1.51443e+07         3.75982e+08
    1.07              881259             1247.87         -1.5008e+07         3.73804e+08
    1.09              873254             1249.39        -1.48715e+07         3.71618e+08
    1.11              865269             1250.99        -1.47346e+07         3.69424e+08
    1.13              857309             1252.65        -1.45976e+07         3.67223e+08
    1.15              849377             1254.39        -1.44604e+07         3.65017e+08
    1.17              841476              1256.2        -1.43232e+07         3.62806e+08
    1.19              833612             1258.07        -1.41861e+07         3.60593e+08
    1.21              825786             1260.01         -1.4049e+07         3.58377e+08
    1.23              818001             1262.01         -1.3912e+07         3.56159e+08
    1.25              810261             1264.06        -1.37753e+07         3.53942e+08
    1.27              802568             1266.17        -1.36388e+07         3.51726e+08
    1.29              794924             1268.33        -1.35027e+07         3.49511e+08
    1.31              787332             1270.54         -1.3367e+07           3.473e+08
    1.33              779793             1272.79        -1.32317e+07         3.45092e+08
    1.35              772309             1275.07        -1.30969e+07         3.42889e+08
    1.37              764881             1277.39        -1.29627e+07         3.40692e+08
    1.39              757511             1279.74         -1.2829e+07         3.38502e+08
    1.41              750200             1282.12         -1.2696e+07          3.3632e+08
    1.43              742950             1284.51        -1.25638e+07         3.34146e+08
    1.45              735759             1286.92        -1.24322e+07         3.31982e+08
    1.47              728630             1289.33        -1.23015e+07         3.29829e+08
    1.49              721563             1291.75        -1.21716e+07         3.27687e+08
    1.51              714558             1294.16        -1.20427e+07         3.25557e+08
    1.53              707616             1296.57        -1.19146e+07         3.23442e+08
    1.55              700736             1298.96        -1.17876e+07          3.2134e+08
    1.57              693918             1301.34        -1.16615e+07         3.19254e+08
    1.59              687163             1303.68        -1.15366e+07         3.17184e+08
    1.61              680470                1306        -1.14127e+07         3.15132e+08
    1.63              673839             1308.28          -1.129e+07         3.13098e+08
    1.65              667270             1310.53        -1.11685e+07         3.11083e+08
    1.67              660763             1312.72        -1.10483e+07         3.09089e+08
    1.69              654316             1314.86        -1.09293e+07         3.07115e+08
    1.71              647930             1316.95        -1.08116e+07         3.05165e+08
    1.73              641605             1318.97        -1.06953e+07         3.03237e+08
    1.75              635339             1320.93        -1.05805e+07         3.01334e+08
    1.77              629132             1322.81         -1.0467e+07         2.99456e+08
    1.79              622985             1324.62        -1.03551e+07         2.97604e+08
    1.81              616896             1326.35        -1.02447e+07          2.9578e+08
    1.83              610866                1328        -1.01359e+07         2.93985e+08
    1.85              604893             1329.55        -1.00287e+07         2.92219e+08
    1.87              598979             1331.02        -9.92312e+06         2.90484e+08
    1.89              593122             1332.39        -9.81928e+06         2.88781e+08
    1.91              587322             1333.66         -9.7172e+06         2.87111e+08
    1.93              581581             1334.83         -9.6169e+06         2.85475e+08
    1.95              575897             1335.89        -9.51845e+06         2.83874e+08
    1.97              570270             1336.85        -9.42188e+06         2.82309e+08
    1.99              564702              1337.7        -9.32724e+06         2.80782e+08
    2.01              559192             1338.43        -9.23457e+06         2.79293e+08
    2.03              553741             1339.05        -9.14392e+06         2.77845e+08
    2.05              548350             1339.55        -9.05533e+06         2.76437e+08
    2.07              543018             1339.94        -8.96885e+06         2.75071e+08
    2.09              537748              1340.2        -8.88453e+06         2.73748e+08
    2.11              532540             1340.34        -8.80241e+06          2.7247e+08
    2.13              527394             1340.36        -8.72255e+06         2.71237e+08
    2.15              522313             1340.25        -8.64497e+06         2.70051e+08
    2.17              517296             1340.02        -8.56972e+06         2.68912e+08
    2.19              512346             1339.65        -8.49686e+06         2.67822e+08
    2.21              507465             1339.16        -8.42642e+06         2.66782e+08
    2.23              502653             1338.53        -8.35845e+06         2.65792e+08
    2.25              497912             1337.77        -8.29299e+06         2.64854e+08
    2.27              493244             1336.87        -8.23009e+06          2.6397e+08
    2.29              488651             1335.84        -8.16979e+06         2.63139e+08
    2.31              484135             1334.67        -8.11213e+06         2.62363e+08
    2.33              479698             1333.36        -8.05714e+06         2.61642e+08
    2.35              475342              1331.9        -8.00487e+06         2.60978e+08
    2.37              471069              1330.3        -7.95535e+06         2.60371e+08
    2.39              466882             1328.55        -7.90862e+06         2.59823e+08
    2.41              462782             1326.65        -7.86472e+06         2.59333e+08
    2.43              458772              1324.6        -7.82366e+06         2.58903e+08
    2.45              454855             1322.39         -7.7855e+06         2.58533e+08
    2.47              451032             1320.02        -7.75024e+06         2.58224e+08
    2.49              447306              1317.5        -7.71793e+06         2.57976e+08
    2.51              443680              1314.8        -7.68859e+06         2.57791e+08
    2.53              440156             1311.94        -7.66222e+06         2.57667e+08
    2.55              436735              1308.9        -7.63886e+06         2.57605e+08
    2.57              433421             1305.69        -7.61851e+06         2.57607e+08
    2.59              430216              1302.3        -7.60119e+06         2.57671e+08
    2.61              427121             1298.73        -7.58692e+06         2.57798e+08
    2.63              424140             1294.97         -7.5757e+06         2.57988e+08
    2.65              421273             1291.03        -7.56752e+06         2.58241e+08
    2.67              418524             1286.89         -7.5624e+06         2.58556e+08
    2.69              415894             1282.55        -7.56032e+06         2.58935e+08
    2.71              413384             1278.02        -7.56129e+06         2.59375e+08
    2.73              410996             1273.29        -7.56529e+06         2.59877e+08
    2.75              408732             1268.35         -7.5723e+06         2.60441e+08
    2.77              406594             1263.21        -7.58231e+06         2.61065e+08
    2.79              404582             1257.87        -7.59529e+06         2.61749e+08
    2.81              402697             1252.32        -7.61122e+06         2.62492e+08
    2.83              400940             1246.56        -7.63006e+06         2.63293e+08
    2.85              399312             1240.59        -7.65179e+06         2.64151e+08
    2.87              397813             1234.42        -7.67636e+06         2.65066e+08
    2.89              396445             1228.05        -7.70372e+06         2.66035e+08
    2.91              395205             1221.47        -7.73384e+06         2.67058e+08
    2.93              394096              1214.7        -7.76665e+06         2.68133e+08
    2.95              393115             1207.73         -7.8021e+06         2.69258e+08
    2.97              392263             1200.57        -7.84013e+06         2.70433e+08
    2.99              391539             1193.23        -7.88068e+06         2.71655e+08
    3.01              390942              1185.7        -7.92366e+06         2.72922e+08
    3.03              390469                1178        -7.96902e+06         2.74233e+08
    3.05              390121             1170.14        -8.01666e+06         2.75586e+08
    3.07              389895             1162.12        -8.06651e+06         2.76978e+08
    3.09              389789             1153.94        -8.11848e+06         2.78407e+08
    3.11              389800             1145.63        -8.17247e+06         2.79871e+08
    3.13              389927             1137.18         -8.2284e+06         2.81367e+08
    3.15              390167             1128.62        -8.28617e+06         2.82894e+08
    3.17              390516             1119.94        -8.34567e+06         2.84449e+08
    3.19              390971             1111.16        -8.40679e+06         2.86028e+08
    3.21              391528             1102.28        -8.46942e+06          2.8763e+08
    3.23              392185             1093.33        -8.53345e+06         2.89251e+08
    3.25              392937             1084.31        -8.59877e+06         2.90889e+08
    3.27              393780             1075.23        -8.66525e+06          2.9254e+08
    3.29              394709              1066.1        -8.73277e+06         2.94203e+08
    3.31              395720             1056.93        -8.80122e+06         2.95874e+08
    3.33              396809             1047.74        -8.87045e+06         2.97549e+08
    3.35              397970             1038.53        -8.94035e+06         2.99227e+08
    3.37              399198             1029.32        -9.01077e+06         3.00903e+08
    3.39              400488             1020.11         -9.0816e+06         3.02575e+08
    3.41              401835             1010.91        -9.15269e+06         3.04239e+08
    3.43              403232             1001.73         -9.2239e+06         3.05893e+08
    3.45              404675             992.583        -9.29511e+06         3.07532e+08
    3.47              406157             983.472        -9.36618e+06         3.09155e+08
    3.49              407672             974.404        -9.43696e+06         3.10758e+08
    3.51              409216             965.387        -9.50733e+06         3.12338e+08
    3.53              410780             956.426        -9.57714e+06         3.13891e+08
    3.55              412360             947.527        -9.64626e+06         3.15415e+08
    3.57              413949             938.695        -9.71455e+06         3.16906e+08
    3.59              415541             929.933        -9.78189e+06         3.18362e+08
    3.61              417130             921.246        -9.84813e+06         3.19779e+08
    3.63              418709             912.635        -9.91315e+06         3.21155e+08
    3.65              420273             904.105        -9.97682e+06         3.22487e+08
    3.67              421815             895.657         -1.0039e+07         3.23772e+08
    3.69              423330             887.291        -1.00996e+07         3.25007e+08
    3.71              424811             879.009        -1.01585e+07          3.2619e+08
    3.73              426252             870.812        -1.02155e+07         3.27318e+08
    3.75              427648             862.699        -1.02706e+07         3.28389e+08
    3.77              428993             854.671        -1.03236e+07         3.29401e+08
    3.79              430281             846.725        -1.03745e+07         3.30351e+08
    3.81              431508             838.862        -1.04231e+07         3.31238e+08
    3.83              432667             831.079        -1.04693e+07         3.32059e+08
    3.85              433755             823.376        -1.05131e+07         3.32812e+08
    3.87              434766             815.749        -1.05544e+07         3.33497e+08
    3.89              435695             808.197         -1.0593e+07         3.34111e+08
    3.91              436538             800.718         -1.0629e+07         3.34653e+08
    3.93              437292              793.31        -1.06622e+07         3.35122e+08
    3.95              437953             785.969        -1.06926e+07         3.35516e+08
    3.97              438515             778.692        -1.07201e+07         3.35836e+08
    3.99              438978             771.478        -1.07447e+07         3.36079e+08
    4.01              439337             764.323        -1.07664e+07         3.36246e+08
    4.03              439589             757.225         -1.0785e+07         3.36336e+08
    4.05              439733             750.182        -1.08006e+07         3.36349e+08
    4.07              439766             743.189        -1.08132e+07         3.36285e+08
    4.09              439687             736.245        -1.08227e+07         3.36143e+08
    4.11              439493             729.348        -1.08292e+07         3.35925e+08
    4.13              439185             722.494        -1.08326e+07          3.3563e+08
    4.15              438761             715.682        -1.08329e+07          3.3526e+08
    4.17              438221             708.909        -1.08302e+07         3.34814e+08
    4.19              437564             702.174        -1.08245e+07         3.34295e+08
    4.21              436791             695.475        -1.08158e+07         3.33703e+08
    4.23              435904             688.809        -1.08041e+07         3.33039e+08
    4.25              434901             682.177        -1.07896e+07         3.32306e+08
    4.27              433786             675.575        -1.07722e+07         3.31504e+08
    4.29              432559             669.004         -1.0752e+07         3.30636e+08
    4.31              431223             662.462        -1.07291e+07         3.29703e+08
    4.33              429780             655.949        -1.07035e+07         3.28707e+08
    4.35              428232             649.465        -1.06754e+07         3.27652e+08
    4.37              426583             643.008        -1.06448e+07         3.26539e+08
    4.39              424836              636.58        -1.06118e+07         3.25371e+08
    4.41              422994             630.181        -1.05765e+07         3.24151e+08
    4.43              421062             623.811         -1.0539e+07         3.22881e+08
    4.45              419044              617.47        -1.04994e+07         3.21565e+08
