## w(eV)         sigma(Sm^-1)     kappa(W(mK)^-1)        L12/e(Am^-1)      L22/e^2(Wm^-1)
    0.01         2.73612e+06              1832.5        -4.12366e+07         7.95083e+08
    0.03           2.735e+06             1831.66        -4.12186e+07         7.94715e+08
    0.05         2.73275e+06             1829.99        -4.11826e+07         7.93982e+08
    0.07         2.72936e+06             1827.46        -4.11284e+07         7.92878e+08
    0.09         2.72481e+06             1824.11        -4.10557e+07         7.91404e+08
    0.11         2.71909e+06             1819.92        -4.09646e+07         7.89559e+08
    0.13         2.71215e+06              1814.9        -4.08546e+07         7.87343e+08
    0.15         2.70398e+06             1809.06        -4.07254e+07         7.84755e+08
    0.17         2.69453e+06             1802.41        -4.05768e+07         7.81793e+08
    0.19         2.68376e+06             1794.96        -4.04085e+07         7.78457e+08
    0.21         2.67164e+06             1786.73        -4.02199e+07         7.74746e+08
    0.23         2.65812e+06             1777.71        -4.00108e+07          7.7066e+08
    0.25         2.64316e+06             1767.93        -3.97808e+07           7.662e+08
    0.27         2.62672e+06              1757.4        -3.95297e+07         7.61368e+08
    0.29         2.60875e+06             1746.15         -3.9257e+07         7.56164e+08
    0.31         2.58921e+06             1734.21        -3.89625e+07         7.50592e+08
    0.33         2.56808e+06             1721.58         -3.8646e+07         7.44658e+08
    0.35         2.54532e+06             1708.32        -3.83074e+07         7.38364e+08
    0.37         2.52091e+06             1694.43        -3.79466e+07          7.3172e+08
    0.39         2.49482e+06             1679.97        -3.75637e+07         7.24732e+08
    0.41         2.46704e+06             1664.95        -3.71587e+07          7.1741e+08
    0.43         2.43758e+06             1649.43        -3.67318e+07         7.09765e+08
    0.45         2.40642e+06             1633.44        -3.62834e+07         7.01811e+08
    0.47         2.37359e+06             1617.02        -3.58139e+07          6.9356e+08
    0.49         2.33911e+06             1600.21        -3.53238e+07          6.8503e+08
    0.51           2.303e+06             1583.06        -3.48138e+07         6.76236e+08
    0.53         2.26532e+06             1565.61        -3.42847e+07         6.67199e+08
    0.55          2.2261e+06              1547.9        -3.37374e+07         6.57939e+08
    0.57         2.18541e+06             1529.99        -3.31728e+07         6.48476e+08
    0.59         2.14333e+06              1511.9        -3.25922e+07         6.38835e+08
    0.61         2.09993e+06             1493.69        -3.19968e+07         6.29038e+08
    0.63         2.05531e+06             1475.39        -3.13879e+07         6.19112e+08
    0.65         2.00957e+06             1457.05         -3.0767e+07         6.09081e+08
    0.67          1.9628e+06             1438.68        -3.01356e+07         5.98973e+08
    0.69         1.91514e+06             1420.33        -2.94953e+07         5.88813e+08
    0.71          1.8667e+06             1402.03        -2.88479e+07          5.7863e+08
    0.73         1.81761e+06             1383.79        -2.81949e+07         5.68452e+08
    0.75           1.768e+06             1365.63        -2.75383e+07         5.58304e+08
    0.77         1.71802e+06             1347.58        -2.68797e+07         5.48214e+08
    0.79          1.6678e+06             1329.63        -2.62212e+07         5.38209e+08
    0.81         1.61749e+06              1311.8        -2.55644e+07         5.28315e+08
    0.83         1.56723e+06             1294.07        -2.49112e+07         5.18556e+08
    0.85         1.51717e+06             1276.46        -2.42635e+07         5.08958e+08
    0.87         1.46746e+06             1258.95         -2.3623e+07         4.99543e+08
    0.89         1.41823e+06             1241.52        -2.29914e+07         4.90332e+08
    0.91         1.36963e+06             1224.16        -2.23704e+07         4.81347e+08
    0.93         1.32179e+06             1206.85        -2.17616e+07         4.72606e+08
    0.95         1.27484e+06             1189.57        -2.11666e+07         4.64126e+08
    0.97         1.22891e+06              1172.3        -2.05867e+07         4.55923e+08
    0.99         1.18411e+06             1155.01        -2.00234e+07         4.48012e+08
    1.01         1.14057e+06              1137.7        -1.94777e+07         4.40403e+08
    1.03         1.09837e+06             1120.34         -1.8951e+07         4.33107e+08
    1.05         1.05763e+06             1102.94        -1.84441e+07         4.26133e+08
    1.07         1.01842e+06             1085.48         -1.7958e+07         4.19487e+08
    1.09              980816             1067.98        -1.74933e+07         4.13174e+08
    1.11              944897             1050.47        -1.70508e+07         4.07197e+08
    1.13              910717             1032.97        -1.66309e+07         4.01556e+08
    1.15              878324             1015.54        -1.62339e+07         3.96252e+08
    1.17              847758             998.252        -1.58601e+07         3.91282e+08
    1.19              819047             981.185        -1.55096e+07         3.86641e+08
    1.21              792211             964.449        -1.51823e+07         3.82325e+08
    1.23              767260             948.168        -1.48781e+07         3.78325e+08
    1.25              744194             932.481        -1.45966e+07         3.74635e+08
    1.27              723004             917.548        -1.43376e+07         3.71244e+08
    1.29              703673             903.535        -1.41004e+07         3.68141e+08
    1.31              686175             890.622        -1.38844e+07         3.65313e+08
    1.33              670476              878.99        -1.36888e+07         3.62748e+08
    1.35              656536             868.821        -1.35129e+07          3.6043e+08
    1.37              644306             860.287        -1.33557e+07         3.58346e+08
    1.39              633732             853.553        -1.32162e+07         3.56478e+08
    1.41              624753             848.763        -1.30933e+07          3.5481e+08
    1.43              617302              846.04        -1.29859e+07         3.53325e+08
    1.45              611309             845.483        -1.28927e+07         3.52004e+08
    1.47              606699             847.163        -1.28124e+07         3.50829e+08
    1.49              603392             851.121        -1.27438e+07         3.49781e+08
    1.51              601306             857.368        -1.26855e+07         3.48841e+08
    1.53              600355             865.887        -1.26361e+07         3.47989e+08
    1.55              600452             876.637        -1.25943e+07         3.47207e+08
    1.57              601507             889.546        -1.25586e+07         3.46474e+08
    1.59              603431             904.525        -1.25277e+07         3.45772e+08
    1.61              606131             921.468        -1.25001e+07         3.45081e+08
    1.63              609516             940.248        -1.24746e+07         3.44384e+08
    1.65              613495             960.731        -1.24498e+07          3.4366e+08
    1.67              617977              982.77        -1.24244e+07         3.42894e+08
    1.69              622872             1006.21        -1.23972e+07         3.42067e+08
    1.71              628092              1030.9         -1.2367e+07         3.41163e+08
    1.73              633550             1056.66        -1.23327e+07         3.40168e+08
    1.75              639162             1083.34        -1.22932e+07         3.39066e+08
    1.77              644847             1110.76        -1.22476e+07         3.37844e+08
    1.79              650524             1138.76         -1.2195e+07          3.3649e+08
    1.81              656118             1167.17        -1.21346e+07         3.34993e+08
    1.83              661556             1195.82        -1.20657e+07         3.33343e+08
    1.85              666769             1224.54        -1.19878e+07         3.31533e+08
    1.87              671692             1253.16        -1.19004e+07         3.29554e+08
    1.89              676263             1281.52         -1.1803e+07         3.27403e+08
    1.91              680425             1309.46        -1.16955e+07         3.25076e+08
    1.93              684124             1336.82        -1.15776e+07          3.2257e+08
    1.95              687313             1363.45        -1.14493e+07         3.19886e+08
    1.97              689947             1389.19        -1.13107e+07         3.17024e+08
    1.99              691986             1413.92        -1.11619e+07         3.13988e+08
    2.01              693396              1437.5        -1.10032e+07         3.10781e+08
    2.03              694145              1459.8        -1.08349e+07         3.07411e+08
    2.05              694209             1480.71        -1.06575e+07         3.03884e+08
    2.07              693566             1500.14        -1.04715e+07          3.0021e+08
    2.09              692199             1517.99        -1.02775e+07         2.96399e+08
    2.11              690096              1534.2        -1.00762e+07         2.92462e+08
    2.13              687250             1548.69        -9.86836e+06         2.88413e+08
    2.15              683658             1561.43        -9.65478e+06         2.84265e+08
    2.17              679321             1572.39        -9.43629e+06         2.80034e+08
    2.19              674242             1581.55        -9.21376e+06         2.75734e+08
    2.21              668433             1588.92         -8.9881e+06         2.71381e+08
    2.23              661904             1594.51        -8.76024e+06         2.66993e+08
    2.25              654675             1598.36        -8.53111e+06         2.62586e+08
    2.27              646763             1600.52        -8.30164e+06         2.58178e+08
    2.29              638193             1601.04        -8.07274e+06         2.53785e+08
    2.31              628992             1599.99        -7.84533e+06         2.49424e+08
    2.33              619187             1597.46        -7.62026e+06         2.45113e+08
    2.35              608812             1593.55        -7.39839e+06         2.40867e+08
    2.37              597901             1588.35         -7.1805e+06         2.36702e+08
    2.39              586491             1581.96        -6.96736e+06         2.32633e+08
    2.41              574618             1574.49        -6.75965e+06         2.28674e+08
    2.43              562325             1566.06        -6.55801e+06         2.24838e+08
    2.45              549652             1556.76        -6.36303e+06         2.21137e+08
    2.47              536642             1546.71        -6.17521e+06         2.17583e+08
    2.49              523339             1536.01          -5.995e+06         2.14184e+08
    2.51              509785             1524.74        -5.82278e+06          2.1095e+08
    2.53              496027                1513        -5.65885e+06         2.07888e+08
    2.55              482108             1500.85        -5.50346e+06         2.05004e+08
    2.57              468073             1488.38        -5.35678e+06         2.02302e+08
    2.59              453966             1475.61        -5.21893e+06         1.99786e+08
    2.61              439830              1462.6        -5.08995e+06         1.97459e+08
    2.63              425707             1449.37        -4.96982e+06         1.95321e+08
    2.65              411641             1435.93         -4.8585e+06         1.93373e+08
    2.67              397670             1422.27        -4.75587e+06         1.91612e+08
    2.69              383833             1408.38        -4.66177e+06         1.90038e+08
    2.71              370169             1394.23          -4.576e+06         1.88647e+08
    2.73              356714             1379.77        -4.49835e+06         1.87435e+08
    2.75              343500             1364.94        -4.42855e+06         1.86398e+08
    2.77              330562             1349.68        -4.36633e+06         1.85533e+08
    2.79              317929             1333.92        -4.31141e+06         1.84832e+08
    2.81              305630             1317.57         -4.2635e+06         1.84291e+08
    2.83              293692             1300.54        -4.22228e+06         1.83905e+08
    2.85              282141             1282.75        -4.18749e+06         1.83668e+08
    2.87              270999             1264.11        -4.15884e+06         1.83575e+08
    2.89              260288             1244.53        -4.13606e+06          1.8362e+08
    2.91              250028             1223.93        -4.11891e+06           1.838e+08
    2.93              240238             1202.25        -4.10719e+06          1.8411e+08
    2.95              230934             1179.43        -4.10072e+06         1.84547e+08
    2.97              222133             1155.44        -4.09934e+06         1.85108e+08
    2.99              213849             1130.25        -4.10296e+06         1.85791e+08
    3.01              206096             1103.88         -4.1115e+06         1.86595e+08
    3.03              198887             1076.37        -4.12496e+06          1.8752e+08
    3.05              192233             1047.81        -4.14336e+06         1.88567e+08
    3.07              186147              1018.3        -4.16678e+06         1.89737e+08
    3.09              180640             988.015        -4.19533e+06         1.91033e+08
    3.11              175724              957.15         -4.2292e+06         1.92459e+08
    3.13              171409             925.952        -4.26861e+06         1.94019e+08
    3.15              167706             894.708        -4.31382e+06          1.9572e+08
    3.17              164628             863.741        -4.36513e+06         1.97567e+08
    3.19              162184             833.402        -4.42291e+06         1.99567e+08
    3.21              160388             804.058        -4.48755e+06         2.01729e+08
    3.23              159251             776.082        -4.55945e+06          2.0406e+08
    3.25              158784             749.835         -4.6391e+06         2.06571e+08
    3.27              159002             725.653        -4.72694e+06          2.0927e+08
    3.29              159915             703.829         -4.8235e+06         2.12166e+08
    3.31              161537             684.604        -4.92928e+06          2.1527e+08
    3.33              163880             668.155        -5.04478e+06         2.18592e+08
    3.35              166956             654.586        -5.17055e+06          2.2214e+08
    3.37              170777             643.934        -5.30707e+06         2.25924e+08
    3.39              175353             636.163        -5.45484e+06         2.29953e+08
    3.41              180696             631.177        -5.61434e+06         2.34235e+08
    3.43              186813             628.827        -5.78601e+06         2.38776e+08
    3.45              193712             628.921        -5.97023e+06         2.43583e+08
    3.47              201397             631.237        -6.16737e+06         2.48661e+08
    3.49              209873             635.535        -6.37771e+06         2.54014e+08
    3.51              219139             641.566        -6.60149e+06         2.59644e+08
    3.53              229194             649.079        -6.83885e+06         2.65552e+08
    3.55              240031             657.834        -7.08988e+06         2.71735e+08
    3.57              251640             667.601        -7.35456e+06         2.78191e+08
    3.59              264010             678.166        -7.63278e+06         2.84915e+08
    3.61              277121             689.334        -7.92432e+06         2.91899e+08
    3.63              290952             700.927        -8.22887e+06         2.99134e+08
    3.65              305475             712.788          -8.546e+06         3.06608e+08
    3.67              320659             724.777        -8.87515e+06         3.14305e+08
    3.69              336465              736.77        -9.21566e+06         3.22209e+08
    3.71              352851             748.659        -9.56673e+06         3.30301e+08
    3.73              369769             760.352        -9.92745e+06         3.38559e+08
    3.75              387165             771.768        -1.02968e+07         3.46958e+08
    3.77              404980             782.834        -1.06736e+07         3.55471e+08
    3.79              423148             793.492        -1.10565e+07         3.64069e+08
    3.81              441601             803.689        -1.14443e+07         3.72721e+08
    3.83              460263             813.378        -1.18354e+07         3.81393e+08
    3.85              479057             822.521        -1.22282e+07         3.90049e+08
    3.87              497897             831.084         -1.2621e+07         3.98653e+08
    3.89              516699             839.037         -1.3012e+07         4.07166e+08
    3.91              535371             846.354        -1.33995e+07         4.15547e+08
    3.93              553820             853.012        -1.37815e+07         4.23755e+08
    3.95              571953             858.993        -1.41562e+07         4.31748e+08
    3.97              589675             864.278        -1.45215e+07         4.39485e+08
    3.99              606888             868.853        -1.48755e+07         4.46922e+08
    4.01              623497             872.705        -1.52162e+07         4.54017e+08
    4.03              639408             875.822        -1.55417e+07          4.6073e+08
    4.05              654529             878.195          -1.585e+07         4.67018e+08
    4.07              668769             879.816        -1.61395e+07         4.72843e+08
    4.09              682044             880.678        -1.64082e+07         4.78166e+08
    4.11              694271             880.776        -1.66545e+07         4.82953e+08
    4.13              705375             880.107        -1.68768e+07          4.8717e+08
    4.15              715286             878.669        -1.70738e+07         4.90787e+08
    4.17              723940             876.461         -1.7244e+07         4.93775e+08
    4.19              731281             873.485        -1.73863e+07         4.96111e+08
    4.21              737261             869.744        -1.74998e+07         4.97774e+08
    4.23              741842             865.242        -1.75836e+07         4.98746e+08
    4.25              744991             859.987        -1.76371e+07         4.99015e+08
    4.27              746688             853.987        -1.76599e+07         4.98572e+08
    4.29              746919             847.253        -1.76516e+07         4.97413e+08
    4.31              745684             839.797        -1.76122e+07         4.95536e+08
    4.33              742987             831.635        -1.75419e+07         4.92945e+08
    4.35              738845             822.783         -1.7441e+07          4.8965e+08
    4.37              733284             813.261          -1.731e+07         4.85662e+08
    4.39              726338              803.09        -1.71496e+07         4.80998e+08
    4.41              718049             792.294        -1.69607e+07         4.75678e+08
    4.43              708469             780.897        -1.67445e+07         4.69726e+08
    4.45              697657             768.929         -1.6502e+07         4.63171e+08
