## w(eV)         sigma(Sm^-1)        error(Sm^-1)
    0.01         1.17331e+06             236.897
    0.03         1.17306e+06             237.221
    0.05         1.17253e+06             237.173
    0.07         1.17171e+06             237.195
    0.09         1.17062e+06             237.224
    0.11         1.16926e+06             237.257
    0.13         1.16763e+06             237.295
    0.15         1.16573e+06             237.334
    0.17         1.16357e+06             237.372
    0.19         1.16115e+06             237.408
    0.21         1.15847e+06             237.439
    0.23         1.15554e+06             237.461
    0.25         1.15235e+06             237.473
    0.27         1.14892e+06             237.469
    0.29         1.14525e+06             237.448
    0.31         1.14135e+06             237.405
    0.33         1.13721e+06             237.336
    0.35         1.13284e+06             237.238
    0.37         1.12826e+06             237.105
    0.39         1.12346e+06             236.934
    0.41         1.11844e+06             236.719
    0.43         1.11323e+06             236.457
    0.45         1.10782e+06             236.142
    0.47         1.10222e+06              235.77
    0.49         1.09644e+06             235.335
    0.51         1.09048e+06             234.833
    0.53         1.08435e+06              234.26
    0.55         1.07806e+06             233.609
    0.57         1.07161e+06             232.876
    0.59         1.06502e+06             232.056
    0.61         1.05829e+06             231.144
    0.63         1.05142e+06             230.136
    0.65         1.04443e+06             229.026
    0.67         1.03732e+06             227.811
    0.69          1.0301e+06             226.487
    0.71         1.02277e+06             225.047
    0.73         1.01536e+06              223.49
    0.75         1.00785e+06             221.811
    0.77         1.00026e+06             220.006
    0.79              992595             218.073
    0.81              984865             216.007
    0.83              977075             213.807
    0.85              969232              211.47
    0.87              961343             208.994
    0.89              953413             206.374
    0.91              945451             203.616
    0.93              937461             200.712
    0.95              929450             197.663
    0.97              921424              194.47
    0.99              913389             191.132
    1.01              905349             187.649
    1.03              897311             184.022
    1.05              889279             180.253
    1.07              881259             176.344
    1.09              873254             172.295
    1.11              865269             168.111
    1.13              857309             163.793
    1.15              849377             159.345
    1.17              841476             154.772
    1.19              833612             150.076
    1.21              825786             145.263
    1.23              818001             140.337
    1.25              810261             135.305
    1.27              802568             130.172
    1.29              794924             124.944
    1.31              787332             119.628
    1.33              779793             114.231
    1.35              772309             108.759
    1.37              764881             103.222
    1.39              757511             97.6256
    1.41              750200             91.9784
    1.43              742950             86.2904
    1.45              735759             80.5695
    1.47              728630             74.8246
    1.49              721563             69.0649
    1.51              714558             63.2999
    1.53              707616             57.5391
    1.55              700736             51.7921
    1.57              693918             46.0687
    1.59              687163             40.3788
    1.61              680470             34.7293
    1.63              673839              29.139
    1.65              667270             23.6091
    1.67              660763             18.1525
    1.69              654316             12.7789
    1.71              647930             7.49816
    1.73              641605             2.31996
    1.75              635339             2.74621
    1.77              629132             7.69099
    1.79              622985             12.5052
    1.81              616896               17.18
    1.83              610866             21.7066
    1.85              604893             26.0766
    1.87              598979              30.282
    1.89              593122              34.315
    1.91              587322             38.1681
    1.93              581581             41.8344
    1.95              575897             45.3072
    1.97              570270             48.5802
    1.99              564702             51.6477
    2.01              559192             54.5044
    2.03              553741             57.1454
    2.05              548350             59.5664
    2.07              543018             61.7634
    2.09              537748             63.7332
    2.11              532540              65.559
    2.13              527394             66.9806
    2.15              522313             68.2541
    2.17              517296             69.2925
    2.19              512346             70.0951
    2.21              507465              70.662
    2.23              502653             70.9937
    2.25              497912             71.0914
    2.27              493244             70.9567
    2.29              488651              70.592
    2.31              484135             70.0001
    2.33              479698             69.1843
    2.35              475342             68.1487
    2.37              471069             66.8978
    2.39              466882             65.4366
    2.41              462782             63.7707
    2.43              458772             61.9062
    2.45              454855             59.8497
    2.47              451032             57.6083
    2.49              447306             55.1895
    2.51              443680             52.6013
    2.53              440156             49.8523
    2.55              436735             46.9512
    2.57              433421             43.9073
    2.59              430216             40.7302
    2.61              427121             37.4299
    2.63              424140             34.0166
    2.65              421273              30.501
    2.67              418524              26.894
    2.69              415894             23.2065
    2.71              413384               19.45
    2.73              410996             15.6361
    2.75              408732             11.7762
    2.77              406594             7.88243
    2.79              404582             3.96655
    2.81              402697            0.040602
    2.83              400940             3.88335
    2.85              399312             7.79328
    2.87              397813              11.677
    2.89              396445             15.5226
    2.91              395205             19.3181
    2.93              394096             23.0516
    2.95              393115             26.7114
    2.97              392263             30.2859
    2.99              391539             33.7638
    3.01              390942             37.1338
    3.03              390469             40.3851
    3.05              390121              43.507
    3.07              389895             46.4892
    3.09              389789             49.3216
    3.11              389800             51.9941
    3.13              389927             54.4986
    3.15              390167             56.8261
    3.17              390516             58.9665
    3.19              390971             60.9126
    3.21              391528             62.6569
    3.23              392185             64.1923
    3.25              392937             65.5122
    3.27              393780             66.6104
    3.29              394709             67.4815
    3.31              395720             68.1203
    3.33              396809             68.5226
    3.35              397970             68.6843
    3.37              399198             68.6023
    3.39              400488             68.2738
    3.41              401835             67.6967
    3.43              403232             66.8696
    3.45              404675             65.7916
    3.47              406157             64.4625
    3.49              407672             62.8825
    3.51              409216             61.0528
    3.53              410780             58.9748
    3.55              412360             56.6509
    3.57              413949             54.0838
    3.59              415541             51.2769
    3.61              417130             48.2343
    3.63              418709             44.9605
    3.65              420273             41.4608
    3.67              421815             37.7407
    3.69              423330             33.8067
    3.71              424811             29.6654
    3.73              426252             25.3242
    3.75              427648             20.7909
    3.77              428993             16.0737
    3.79              430281             11.1813
    3.81              431508             6.12291
    3.83              432667            0.908049
    3.85              433755             4.45338
    3.87              434766             9.95112
    3.89              435695             15.5746
    3.91              436538              21.362
    3.93              437292             27.0949
    3.95              437953              33.088
    3.97              438515             39.1027
    3.99              438978             45.1863
    4.01              439337             51.3269
    4.03              439589             57.5123
    4.05              439733             63.7305
    4.07              439766             69.9693
    4.09              439687             76.2164
    4.11              439493             82.4597
    4.13              439185              88.687
    4.15              438761             94.8862
    4.17              438221             101.045
    4.19              437564             107.153
    4.21              436791             113.196
    4.23              435904             119.165
    4.25              434901             125.047
    4.27              433786             130.831
    4.29              432559             136.508
    4.31              431223             142.066
    4.33              429780             147.495
    4.35              428232             152.785
    4.37              426583             157.927
    4.39              424836             162.913
    4.41              422994             167.732
    4.43              421062             172.377
    4.45              419044             176.841
    4.47              416943             181.115
    4.49              414766             185.194
    4.51              412516             189.069
    4.53              410200             192.737
    4.55              407823             196.191
    4.57              405390             199.426
    4.59              402907             202.438
    4.61              400382             205.222
    4.63              397818             207.777
    4.65              395225             210.098
    4.67              392607             212.183
    4.69              389972             214.031
    4.71              387326             215.639
    4.73              384678             217.008
    4.75              382032             218.137
    4.77              379397             219.025
    4.79              376780             219.674
    4.81              374189             220.084
    4.83              371629             220.257
    4.85              369108             220.195
    4.87              366634             219.902
    4.89              364214             219.378
    4.91              361854             218.626
    4.93              359562             217.651
    4.95              357344             216.457
    4.97              355208             215.047
    4.99              353159             213.427
    5.01              351205             211.601
    5.03              349352             209.574
    5.05              347606             207.351
    5.07              345972             204.939
    5.09              344458             202.343
    5.11              343068              199.57
    5.13              341808             196.625
    5.15              340683             193.514
    5.17              339697             190.271
    5.19              338857             186.825
    5.21              338165              183.26
    5.23              337626             179.556
    5.25              337245             175.722
    5.27              337024             171.763
    5.29              336966             167.688
    5.31              337075             163.503
    5.33              337353             159.215
    5.35              337803             154.831
    5.37              338427             150.359
    5.39              339226             145.805
    5.41              340201             141.177
    5.43              341354             136.481
    5.45              342685             131.725
    5.47              344195             126.914
    5.49              345883             122.056
    5.51              347749             117.157
    5.53              349793             112.224
    5.55              352014             107.263
    5.57              354410              102.28
    5.59              356980             97.2805
    5.61              359721             92.2716
    5.63              362632             87.2585
    5.65              365709             82.2469
    5.67              368950             77.2421
    5.69              372352             72.2495
    5.71              375911             67.2743
    5.73              379624             62.3213
    5.75              383486             57.3954
    5.77              387493             52.5012
    5.79              391640             47.6434
    5.81              395923              42.826
    5.83              400337             38.0534
    5.85              404875             33.3296
    5.87              409534             28.6584
    5.89              414306             24.0436
    5.91              419186             19.4886
    5.93              424168             14.9969
    5.95              429246             10.5718
    5.97              434413              6.2164
    5.99              439662             1.93368
    6.01              444987             2.27349
    6.03              450382             6.40236
    6.05              455838             10.4503
    6.07              461349             14.4149
    6.09              466907             18.2936
    6.11              472506             22.0843
    6.13              478139             25.7848
    6.15              483797              29.393
    6.17              489474             32.9069
    6.19              495162             36.3255
    6.21              500854             39.6445
    6.23              506543             42.8646
    6.25              512221             45.9835
    6.27              517880             48.9995
    6.29              523515             51.9112
    6.31              529116             54.7172
    6.33              534678             57.4161
    6.35              540194             60.0067
    6.37              545656             62.4877
    6.39              551058             64.8579
    6.41              556392             67.1164
    6.43              561653             69.2619
    6.45              566834              71.294
    6.47              571929             73.2108
    6.49              576932             75.0117
    6.51              581837             76.6961
    6.53              586637             78.2632
    6.55              591329              79.712
    6.57              595905             81.0421
    6.59              600362             82.2526
    6.61              604693              83.343
    6.63              608895             84.3127
    6.65              612964             85.1613
    6.67              616893             85.8882
    6.69              620681              86.493
    6.71              624322             86.9755
    6.73              627814             87.3352
    6.75              631153              87.572
    6.77              634336             87.6857
    6.79              637359              87.676
    6.81              640222              87.543
    6.83              642920             87.2867
    6.85              645453             86.9072
    6.87              647818             86.4045
    6.89              650014             85.7789
    6.91              652039             85.0306
    6.93              653892             84.1601
    6.95              655573             83.1678
    6.97              657080             82.0542
    6.99              658413               80.82
    7.01              659572             79.4658
    7.03              660558             77.9925
    7.05              661369             76.4009
    7.07              662008             74.6921
    7.09              662473             72.8671
    7.11              662767             70.9271
    7.13              662890             68.8736
    7.15              662844             66.7078
    7.17              662629             64.4313
    7.19              662248             62.0458
    7.21              661702             59.5531
    7.23              660993              56.955
    7.25              660122             54.2537
    7.27              659093             51.4511
    7.29              657908             48.5496
    7.31              656568             45.5516
    7.33              655077             42.4597
    7.35              653437             39.2764
    7.37              651651             36.0047
    7.39              649721             32.6474
    7.41              647651             29.2076
    7.43              645443             25.6885
    7.45              643101             22.0935
    7.47              640628             18.4261
    7.49              638026             14.6898
    7.51              635300             10.8885
    7.53              632452             7.02599
    7.55              629485             3.10642
    7.57              626403            0.866251
    7.59              623210             4.88763
    7.61              619908             8.95329
    7.63              616501             13.0587
    7.65              612992             17.1992
    7.67              609384               21.37
    7.69              605682             25.5661
    7.71              601887             29.7827
    7.73              598004             34.0145
    7.75              594036             38.2564
    7.77              589985              42.503
    7.79              585856              46.749
    7.81              581651             50.9887
    7.83              577373             55.2168
    7.85              573025             59.4275
    7.87              568611             63.6151
    7.89              564134             67.7739
    7.91              559596              71.898
    7.93              555000             75.9818
    7.95              550349             80.0192
    7.97              545645             84.0044
    7.99              540893             87.9315
    8.01              536093             91.7946
    8.03              531250             95.5879
    8.05              526364             99.3055
    8.07              521440             102.942
    8.09              516478              106.49
    8.11              511483             109.946
    8.13              506455             113.303
