## w(eV)         sigma(Sm^-1)        error(Sm^-1)
    0.01         2.73612e+06              420.84
    0.03           2.735e+06              420.17
    0.05         2.73275e+06             418.818
    0.07         2.72936e+06             416.816
    0.09         2.72481e+06             414.156
    0.11         2.71909e+06             410.849
    0.13         2.71215e+06             406.905
    0.15         2.70398e+06             402.337
    0.17         2.69453e+06              397.16
    0.19         2.68376e+06             391.389
    0.21         2.67164e+06             385.058
    0.23         2.65812e+06             378.155
    0.25         2.64316e+06             370.715
    0.27         2.62672e+06             362.756
    0.29         2.60875e+06             354.299
    0.31         2.58921e+06             345.362
    0.33         2.56808e+06             335.965
    0.35         2.54532e+06             326.125
    0.37         2.52091e+06             315.861
    0.39         2.49482e+06             305.186
    0.41         2.46704e+06             294.115
    0.43         2.43758e+06             282.658
    0.45         2.40642e+06             270.825
    0.47         2.37359e+06             258.621
    0.49         2.33911e+06             246.049
    0.51           2.303e+06             233.108
    0.53         2.26532e+06             219.794
    0.55          2.2261e+06             206.099
    0.57         2.18541e+06             192.012
    0.59         2.14333e+06             177.516
    0.61         2.09993e+06             162.594
    0.63         2.05531e+06             147.222
    0.65         2.00957e+06             131.375
    0.67          1.9628e+06             115.024
    0.69         1.91514e+06             98.1381
    0.71          1.8667e+06             80.6827
    0.73         1.81761e+06             62.6231
    0.75           1.768e+06             43.9234
    0.77         1.71802e+06             24.5474
    0.79          1.6678e+06             4.45984
    0.81         1.61749e+06             16.3729
    0.83         1.56723e+06             37.9818
    0.85         1.51717e+06             60.3975
    0.87         1.46746e+06             83.6359
    0.89         1.41823e+06             107.716
    0.91         1.36963e+06             132.646
    0.93         1.32179e+06             158.427
    0.95         1.27484e+06             185.048
    0.97         1.22891e+06              212.49
    0.99         1.18411e+06             240.719
    1.01         1.14057e+06              269.69
    1.03         1.09837e+06             299.342
    1.05         1.05763e+06               329.6
    1.07         1.01842e+06             360.373
    1.09              980816             391.555
    1.11              944897             423.021
    1.13              910717             454.631
    1.15              878324             486.227
    1.17              847758             517.638
    1.19              819047             548.673
    1.21              792211             579.129
    1.23              767260              608.79
    1.25              744194             637.425
    1.27              723004             664.796
    1.29              703673             690.656
    1.31              686175             714.751
    1.33              670476             736.825
    1.35              656536             756.621
    1.37              644306             773.884
    1.39              633732             788.367
    1.41              624753             799.829
    1.43              617302             808.044
    1.45              611309               812.8
    1.47              606699             813.905
    1.49              603392             811.189
    1.51              601306             804.508
    1.53              600355             793.745
    1.55              600452             778.817
    1.57              601507             759.673
    1.59              603431             736.297
    1.61              606131             708.712
    1.63              609516             676.979
    1.65              613495             641.198
    1.67              617977              601.51
    1.69              622872             558.094
    1.71              628092             511.169
    1.73              633550             460.992
    1.75              639162             407.852
    1.77              644847             352.076
    1.79              650524             294.017
    1.81              656118             234.058
    1.83              661556             172.603
    1.85              666769             110.078
    1.87              671692             46.9195
    1.89              676263             16.4229
    1.91              680425              79.496
    1.93              684124             141.846
    1.95              687313             203.025
    1.97              689947             262.595
    1.99              691986             320.133
    2.01              693396             375.235
    2.03              694145             427.522
    2.05              694209             476.625
    2.07              693566             522.259
    2.09              692199             564.125
    2.11              690096             601.978
    2.13              687250             635.615
    2.15              683658              664.88
    2.17              679321             689.644
    2.19              674242             709.838
    2.21              668433             725.434
    2.23              661904             736.444
    2.25              654675             742.927
    2.27              646763              744.98
    2.29              638193              742.74
    2.31              628992             736.381
    2.33              619187             726.109
    2.35              608812             712.161
    2.37              597901             694.799
    2.39              586491              674.31
    2.41              574618             650.996
    2.43              562325             625.178
    2.45              549652             597.182
    2.47              536642             567.344
    2.49              523339                 536
    2.51              509785             503.484
    2.53              496027             470.125
    2.55              482108              436.24
    2.57              468073             402.136
    2.59              453966             368.104
    2.61              439830             334.413
    2.63              425707             301.315
    2.65              411641             269.036
    2.67              397670             237.778
    2.69              383833             207.719
    2.71              370169             179.008
    2.73              356714             151.766
    2.75              343500             126.088
    2.77              330562              102.04
    2.79              317929             79.6626
    2.81              305630             58.9679
    2.83              293692             39.9503
    2.85              282141             22.5547
    2.87              270999             6.74132
    2.89              260288             7.57591
    2.91              250028             20.4956
    2.93              240238             32.1333
    2.95              230934             42.6196
    2.97              222133             52.0974
    2.99              213849               60.72
    3.01              206096             68.6488
    3.03              198887             76.0508
    3.05              192233              83.096
    3.07              186147             89.9554
    3.09              180640             96.7987
    3.11              175724             103.792
    3.13              171409             111.095
    3.15              167706             118.859
    3.17              164628             127.227
    3.19              162184             136.328
    3.21              160388             146.279
    3.23              159251              157.18
    3.25              158784             169.114
    3.27              159002             182.147
    3.29              159915             196.323
    3.31              161537             211.669
    3.33              163880             228.187
    3.35              166956             245.858
    3.37              170777             264.641
    3.39              175353             284.471
    3.41              180696             305.261
    3.43              186813             326.902
    3.45              193712             349.261
    3.47              201397             372.187
    3.49              209873             395.505
    3.51              219139             419.024
    3.53              229194             442.534
    3.55              240031             465.811
    3.57              251640             488.616
    3.59              264010               510.7
    3.61              277121             531.806
    3.63              290952             551.669
    3.65              305475             570.025
    3.67              320659             586.606
    3.69              336465             601.151
    3.71              352851             613.403
    3.73              369769             623.118
    3.75              387165             630.064
    3.77              404980             634.026
    3.79              423148             634.809
    3.81              441601             632.241
    3.83              460263             626.176
    3.85              479057             616.498
    3.87              497897              603.12
    3.89              516699             585.989
    3.91              535371             565.086
    3.93              553820              540.43
    3.95              571953             512.074
    3.97              589675             480.109
    3.99              606888             444.663
    4.01              623497             405.899
    4.03              639408             364.018
    4.05              654529             319.252
    4.07              668769             271.864
    4.09              682044             222.147
    4.11              694271             170.422
    4.13              705375             117.021
    4.15              715286             62.3135
    4.17              723940             6.66947
    4.19              731281             49.5255
    4.21              737261              105.88
    4.23              741842             161.999
    4.25              744991             217.496
    4.27              746688             271.986
    4.29              746919             325.095
    4.31              745684             376.467
    4.33              742987             425.764
    4.35              738845             472.671
    4.37              733284               516.9
    4.39              726338              558.19
    4.41              718049             596.313
    4.43              708469             631.075
    4.45              697657             662.315
    4.47              685677             689.909
    4.49              672603              713.77
    4.51              658511             733.845
    4.53              643483             750.121
    4.55              627607             762.616
    4.57              610972             771.384
    4.59              593669             776.511
    4.61              575793             778.112
    4.63              557438              776.33
    4.65              538697             771.333
    4.67              519664              763.31
    4.69              500432             752.472
    4.71              481089             739.041
    4.73              461723             723.255
    4.75              442418             705.361
    4.77              423251              685.61
    4.79              404300             664.259
    4.81              385633             641.562
    4.83              367317             617.773
    4.85              349413             593.138
    4.87              331974             567.897
    4.89              315051             542.278
    4.91              298686             516.498
    4.93              282919             490.761
    4.95              267783             465.254
    4.97              253305             440.148
    4.99              239508             415.598
    5.01              226408             391.739
    5.03              214020              368.69
    5.05              202352             346.549
    5.07              191408               325.4
    5.09              181189             305.304
    5.11              171692             286.308
    5.13              162911             268.441
    5.15              154837             251.717
    5.17              147458             236.134
    5.19              140762             221.677
    5.21              134733             208.319
    5.23              129354              196.02
    5.25              124607             184.731
    5.27              120474             174.395
    5.29              116934             164.948
    5.31              113967             156.317
    5.33              111555             148.428
    5.35              109675             141.204
    5.37              108310             134.562
    5.39              107440              128.42
    5.41              107046             122.702
    5.43              107111             117.327
    5.45              107618             112.218
    5.47              108552             107.302
    5.49              109900             102.511
    5.51              111648             97.7821
    5.53              113786             93.0564
    5.55              116304             88.2827
    5.57              119195             83.4159
    5.59              122452             78.4179
    5.61              126072             73.2575
    5.63              130051             67.9107
    5.65              134388             62.3608
    5.67              139085             56.5978
    5.69              144143             50.6185
    5.71              149566             44.4265
    5.73              155360             38.0311
    5.75              161531             31.4475
    5.77              168087             24.6959
    5.79              175037             17.8011
    5.81              182389             10.7916
    5.83              190155             3.69935
    5.85              198344              3.4411
    5.87              206967             10.5934
    5.89              216035             17.7202
    5.91              225557             24.7832
    5.93              235543             31.7449
    5.95              246002             38.5681
    5.97              256940             45.2175
    5.99              268363             51.6596
    6.01              280276             57.8582
    6.03              292679             63.8011
    6.05              305573             69.4485
    6.07              318954             74.7849
    6.09              332816             79.7937
    6.11              347150             84.4626
    6.13              361944             88.7839
    6.15              377184             92.7539
    6.17              392848             96.3763
    6.19              408916             99.6524
    6.21              425361             102.594
    6.23              442153             105.214
    6.25              459259             107.531
    6.27              476642             109.566
    6.29              494262             111.343
    6.31              512076              112.89
    6.33              530038             114.236
    6.35              548099             115.413
    6.37              566206             116.455
    6.39              584307             117.395
    6.41              602346             118.268
    6.43              620266              119.11
    6.45              638010             119.956
    6.47              655518              120.84
    6.49              672733             121.794
    6.51              689596             122.751
    6.53              706049             124.043
    6.55              722038             125.388
    6.57              737507             126.915
    6.59              752404             128.646
    6.61              766679             130.595
    6.63              780287             132.781
    6.65              793183              135.21
    6.67              805329             137.888
    6.69              816689             140.816
    6.71              827232              143.99
    6.73              836933             147.403
    6.75              845770             151.041
    6.77              853727             154.886
    6.79              860792             158.916
    6.81              866959             163.105
    6.83              872226             167.421
    6.85              876598             171.828
    6.87              880083             176.287
    6.89              882695             180.754
    6.91              884450             185.186
    6.93              885372             189.531
    6.95              885484             193.737
    6.97              884818             197.751
    6.99              883404              201.52
    7.01              881277             204.987
    7.03              878476             208.098
    7.05              875038             210.799
    7.07              871005             213.037
    7.09              866417             214.762
    7.11              861316             215.923
    7.13              855745             216.483
    7.15              849745               216.4
    7.17              843358             215.641
    7.19              836622             214.177
    7.21              829579             211.989
    7.23              822265             209.062
    7.25              814715              205.39
    7.27              806966             200.972
    7.29              799047             195.817
    7.31              790991              189.95
    7.33              782826             183.388
    7.35              774578             176.168
    7.37              766271             168.332
    7.39              757929             159.928
    7.41              749572             151.013
    7.43              741221             141.649
    7.45              732894             131.904
    7.47              724608             121.849
    7.49              716379             111.561
    7.51              708222             101.118
    7.53              700152             90.5999
    7.55              692182             80.0862
    7.57              684326             69.6556
    7.59              676597             59.3846
    7.61              669006              49.346
    7.63              661566             39.6077
    7.65              654289             30.2316
    7.67              647185             21.2728
    7.69              640265             12.7783
    7.71              633539             4.78601
    7.73              627016             2.67547
    7.75              620704             9.58787
    7.77              614610             15.9435
    7.79              608738             21.7454
    7.81              603094             27.0076
    7.83              597679             31.7549
    7.85              592493             36.0227
    7.87              587534             39.8561
    7.89              582798             43.3099
    7.91              578276             46.4471
    7.93              573961             49.3387
    7.95              569840             52.0619
    7.97              565897             54.6994
    7.99              562117             57.3378
    8.01              558478             60.0664
    8.03              554959             62.9759
    8.05              551535             66.1567
    8.07              548179             69.6975
    8.09              544865             73.6844
    8.11              541562              78.199
    8.13              538240             83.3163
